fit_time[ns] Functional_fit[mV] Thermal_fit[mV]
3.600000 27.021682 26.174059
3.650000 26.716569 25.651318
3.700000 26.394460 25.139017
3.750000 26.050814 24.636936
3.800000 25.681899 24.144860
3.850000 25.284861 23.662579
3.900000 24.857782 23.189886
3.950000 24.399717 22.726581
4.000000 23.910697 22.272467
4.050000 23.391717 21.827353
4.100000 22.844702 21.391050
4.150000 22.272445 20.963375
4.200000 21.678528 20.544148
4.250000 21.067226 20.133195
4.300000 20.443395 19.730343
4.350000 19.812344 19.335425
4.400000 19.179700 18.948278
4.450000 18.551271 18.568740
4.500000 17.932893 18.196655
4.550000 17.330294 17.831870
4.600000 16.748949 17.474234
4.650000 16.193950 17.123601
4.700000 15.669881 16.779827
4.750000 15.180714 16.442773
4.800000 14.729709 16.112301
4.850000 14.319345 15.788275
4.900000 13.951259 15.470567
4.950000 13.626216 15.159045
5.000000 13.344091 14.853586
5.050000 13.103880 14.554065
5.100000 12.903724 14.260362
5.150000 12.740964 13.972361
5.200000 12.612206 13.689944
5.250000 12.513404 13.413000
5.300000 12.439966 13.141418
5.350000 12.386857 12.875090
5.400000 12.348731 12.613910
5.450000 12.320051 12.357775
5.500000 12.295227 12.106584
5.550000 12.268742 11.860237
5.600000 12.235288 11.618637
5.650000 12.189884 11.381689
5.700000 12.127990 11.149301
5.750000 12.045615 10.921381
5.800000 11.939399 10.697840
5.850000 11.806690 10.478591
5.900000 11.645599 10.263549
5.950000 11.455034 10.052629
6.000000 11.234719 9.845750
6.050000 10.985193 9.642832
6.100000 10.707784 9.443796
6.150000 10.404573 9.248565
6.200000 10.078332 9.057065
6.250000 9.732449 8.869220
6.300000 9.370847 8.684960
6.350000 8.997872 8.504213
6.400000 8.618193 8.326911
6.450000 8.236682 8.152985
6.500000 7.858294 7.982368
6.550000 7.487944 7.814997
6.600000 7.130393 7.650807
6.650000 6.790126 7.489735
6.700000 6.471255 7.331722
6.750000 6.177414 7.176706
6.800000 5.911678 7.024629
6.850000 5.676494 6.875433
6.900000 5.473624 6.729063
6.950000 5.304109 6.585464
7.000000 5.168248 6.444580
7.050000 5.065596 6.306360
7.100000 4.994982 6.170751
7.150000 4.954540 6.037703
7.200000 4.941757 5.907166
7.250000 4.953544 5.779090
7.300000 4.986305 5.653429
7.350000 5.036036 5.530136
7.400000 5.098415 5.409164
7.450000 5.168912 5.290469
7.500000 5.242899 5.174007
7.550000 5.315755 5.059734
7.600000 5.382983 4.947608
7.650000 5.440310 4.837588
7.700000 5.483792 4.729633
7.750000 5.509897 4.623703
7.800000 5.515591 4.519760
7.850000 5.498407 4.417765
7.900000 5.456489 4.317680
7.950000 5.388642 4.219469
8.000000 5.294345 4.123097
8.050000 5.173760 4.028526
8.100000 5.027723 3.935724
8.150000 4.857714 3.844656
8.200000 4.665818 3.755289
8.250000 4.454664 3.667590
8.300000 4.227365 3.581528
8.350000 3.987429 3.497071
8.400000 3.738677 3.414188
8.450000 3.485145 3.332850
8.500000 3.230987 3.253027
8.550000 2.980370 3.174690
8.600000 2.737377 3.097810
8.650000 2.505908 3.022361
8.700000 2.289586 2.948314
8.750000 2.091675 2.875644
8.800000 1.915001 2.804323
8.850000 1.761888 2.734327
8.900000 1.634109 2.665630
8.950000 1.532846 2.598207
9.000000 1.458663 2.532035
9.050000 1.411502 2.467090
9.100000 1.390689 2.403347
9.150000 1.394951 2.340786
9.200000 1.422456 2.279382
9.250000 1.470856 2.219115
9.300000 1.537352 2.159963
9.350000 1.618765 2.101904
9.400000 1.711608 2.044919
9.450000 1.812180 1.988987
9.500000 1.916652 1.934088
9.550000 2.021159 1.880202
9.600000 2.121895 1.827311
9.650000 2.215201 1.775395
9.700000 2.297651 1.724437
9.750000 2.366133 1.674418
9.800000 2.417920 1.625321
9.850000 2.450732 1.577129
9.900000 2.462783 1.529823
9.950000 2.452824 1.483389
10.000000 2.420166 1.437809
10.050000 2.364688 1.393067
10.100000 2.286840 1.349148
10.150000 2.187622 1.306036
10.200000 2.068559 1.263717
10.250000 1.931655 1.222174
10.300000 1.779345 1.181395
10.350000 1.614429 1.141364
10.400000 1.440003 1.102067
10.450000 1.259383 1.063491
10.500000 1.076019 1.025623
10.550000 0.893416 0.988448
10.600000 0.715045 0.951955
10.650000 0.544264 0.916130
10.700000 0.384234 0.880961
10.750000 0.237847 0.846436
10.800000 0.107657 0.812543
10.850000 -0.004174 0.779270
10.900000 -0.095932 0.746605
10.950000 -0.166382 0.714538
11.000000 -0.214796 0.683056
11.050000 -0.240967 0.652150
11.100000 -0.245210 0.621808
11.150000 -0.228348 0.592020
11.200000 -0.191688 0.562776
11.250000 -0.136989 0.534065
11.300000 -0.066414 0.505879
11.350000 0.017526 0.478206
11.400000 0.112035 0.451038
11.450000 0.214097 0.424364
11.500000 0.320558 0.398177
11.550000 0.428194 0.372467
11.600000 0.533794 0.347225
11.650000 0.634236 0.322442
11.700000 0.726559 0.298111
11.750000 0.808035 0.274222
11.800000 0.876227 0.250768
11.850000 0.929053 0.227740
11.900000 0.964824 0.205130
11.950000 0.982287 0.182932
12.000000 0.980647 0.161137
12.050000 0.959585 0.139737
12.100000 0.919259 0.118726
12.150000 0.860297 0.098097
12.200000 0.783777 0.077842
12.250000 0.691198 0.057954
12.300000 0.584440 0.038428
12.350000 0.465713 0.019255
12.400000 0.337505 0.000430
12.450000 0.202518 -0.018054
12.500000 0.063600 -0.036204
12.550000 -0.076324 -0.054024
12.600000 -0.214320 -0.071522
12.650000 -0.347522 -0.088703
12.700000 -0.473194 -0.105573
12.750000 -0.588796 -0.122137
12.800000 -0.692047 -0.138403
12.850000 -0.780972 -0.154373
12.900000 -0.853951 -0.170056
12.950000 -0.909753 -0.185454
13.000000 -0.947564 -0.200575
13.050000 -0.967000 -0.215422
13.100000 -0.968114 -0.230001
13.150000 -0.951392 -0.244317
13.200000 -0.917736 -0.258374
13.250000 -0.868442 -0.272177
13.300000 -0.805160 -0.285732
13.350000 -0.729858 -0.299042
13.400000 -0.644766 -0.312112
13.450000 -0.552326 -0.324946
13.500000 -0.455127 -0.337549
13.550000 -0.355844 -0.349924
13.600000 -0.257175 -0.362077
13.650000 -0.161771 -0.374011
13.700000 -0.072180 -0.385729
13.750000 0.009220 -0.397237
13.800000 0.080271 -0.408538
13.850000 0.139089 -0.419635
13.900000 0.184103 -0.430532
13.950000 0.214093 -0.441234
14.000000 0.228211 -0.451743
14.050000 0.226007 -0.462062
14.100000 0.207425 -0.472197
14.150000 0.172811 -0.482149
14.200000 0.122895 -0.491922
14.250000 0.058770 -0.501520
14.300000 -0.018134 -0.510945
14.350000 -0.106089 -0.520201
14.400000 -0.203113 -0.529291
14.450000 -0.307021 -0.538218
14.500000 -0.415479 -0.546984
14.550000 -0.526057 -0.555593
14.600000 -0.636296 -0.564048
14.650000 -0.743760 -0.572351
14.700000 -0.846098 -0.580505
14.750000 -0.941100 -0.588513
14.800000 -1.026745 -0.596377
14.850000 -1.101253 -0.604101
14.900000 -1.163122 -0.611686
14.950000 -1.211164 -0.619135
15.000000 -1.244527 -0.626451
15.050000 -1.262717 -0.633635
15.100000 -1.265605 -0.640691
15.150000 -1.253425 -0.647621
15.200000 -1.226769 -0.654427
15.250000 -1.186568 -0.661111
15.300000 -1.134063 -0.667675
15.350000 -1.070780 -0.674122
15.400000 -0.998486 -0.680454
15.450000 -0.919145 -0.686672
15.500000 -0.834871 -0.692779
15.550000 -0.747874 -0.698777
15.600000 -0.660407 -0.704668
15.650000 -0.574714 -0.710454
15.700000 -0.492972 -0.716136
15.750000 -0.417243 -0.721717
15.800000 -0.349424 -0.727198
15.850000 -0.291204 -0.732581
15.900000 -0.244023 -0.737868
15.950000 -0.209044 -0.743061
16.000000 -0.187123 -0.748161
16.050000 -0.178794 -0.753171
16.100000 -0.184259 -0.758090
16.150000 -0.203385 -0.762923
16.200000 -0.235710 -0.767668
16.250000 -0.280458 -0.772330
16.300000 -0.336561 -0.776908
16.350000 -0.402685 -0.781405
16.400000 -0.477266 -0.785821
16.450000 -0.558549 -0.790159
16.500000 -0.644632 -0.794419
16.550000 -0.733512 -0.798604
16.600000 -0.823136 -0.802714
16.650000 -0.911448 -0.806751
16.700000 -0.996441 -0.810716
16.750000 -1.076202 -0.814611
16.800000 -1.148959 -0.818436
16.850000 -1.213123 -0.822193
16.900000 -1.267321 -0.825884
16.950000 -1.310431 -0.829508
17.000000 -1.341604 -0.833068
17.050000 -1.360284 -0.836565
17.100000 -1.366217 -0.840000
17.150000 -1.359454 -0.843374
17.200000 -1.340351 -0.846688
17.250000 -1.309554 -0.849943
17.300000 -1.267982 -0.853140
17.350000 -1.216803 -0.856280
17.400000 -1.157402 -0.859364
17.450000 -1.091351 -0.862394
17.500000 -1.020364 -0.865370
17.550000 -0.946258 -0.868293
17.600000 -0.870905 -0.871164
17.650000 -0.796193 -0.873985
17.700000 -0.723975 -0.876755
17.750000 -0.656026 -0.879476
17.800000 -0.594003 -0.882149
17.850000 -0.539406 -0.884774
17.900000 -0.493541 -0.887353
17.950000 -0.457493 -0.889886
18.000000 -0.432102 -0.892374
18.050000 -0.417942 -0.894818
18.100000 -0.415314 -0.897219
18.150000 -0.424237 -0.899577
18.200000 -0.444454 -0.901894
18.250000 -0.475437 -0.904169
18.300000 -0.516403 -0.906405
18.350000 -0.566338 -0.908600
18.400000 -0.624019 -0.910757
18.450000 -0.688047 -0.912875
18.500000 -0.756885 -0.914956
18.550000 -0.828889 -0.917000
18.600000 -0.902356 -0.919008
18.650000 -0.975561 -0.920981
18.700000 -1.046799 -0.922918
18.750000 -1.114426 -0.924822
18.800000 -1.176899 -0.926691
18.850000 -1.232812 -0.928528
18.900000 -1.280926 -0.930332
18.950000 -1.320199 -0.932104
19.000000 -1.349811 -0.933845
19.050000 -1.369179 -0.935555
19.100000 -1.377968 -0.937235
19.150000 -1.376103 -0.938885
19.200000 -1.363760 -0.940506
19.250000 -1.341367 -0.942099
19.300000 -1.309586 -0.943663
19.350000 -1.269299 -0.945200
19.400000 -1.221584 -0.946709
19.450000 -1.167686 -0.948192
19.500000 -1.108985 -0.949649
19.550000 -1.046967 -0.951080
19.600000 -0.983182 -0.952485
19.650000 -0.919207 -0.953866
19.700000 -0.856611 -0.955223
19.750000 -0.796914 -0.956555
19.800000 -0.741555 -0.957865
19.850000 -0.691854 -0.959151
19.900000 -0.648982 -0.960414
19.950000 -0.613940 -0.961655
20.000000 -0.587527 -0.962874
20.050000 -0.570331 -0.964072
20.100000 -0.562712 -0.965248
20.150000 -0.564796 -0.966404
20.200000 -0.576478 -0.967540
20.250000 -0.597420 -0.968655
20.300000 -0.627067 -0.969751
20.350000 -0.664657 -0.970828
20.400000 -0.709246 -0.971885
20.450000 -0.759731 -0.972924
20.500000 -0.814873 -0.973945
20.550000 -0.873336 -0.974947
20.600000 -0.933713 -0.975932
20.650000 -0.994565 -0.976900
20.700000 -1.054452 -0.977851
20.750000 -1.111969 -0.978785
20.800000 -1.165783 -0.979702
20.850000 -1.214657 -0.980603
20.900000 -1.257485 -0.981489
20.950000 -1.293316 -0.982359
21.000000 -1.321372 -0.983213
21.050000 -1.341070 -0.984053
21.100000 -1.352031 -0.984878
21.150000 -1.354090 -0.985688
21.200000 -1.347293 -0.986484
21.250000 -1.331902 -0.987266
21.300000 -1.308378 -0.988034
21.350000 -1.277376 -0.988789
21.400000 -1.239722 -0.989531
21.450000 -1.196395 -0.990259
21.500000 -1.148501 -0.990975
21.550000 -1.097244 -0.991678
21.600000 -1.043900 -0.992369
21.650000 -0.989782 -0.993048
21.700000 -0.936211 -0.993714
21.750000 -0.884481 -0.994369
21.800000 -0.835832 -0.995013
21.850000 -0.791419 -0.995645
21.900000 -0.752284 -0.996266
21.950000 -0.719334 -0.996877
22.000000 -0.693320 -0.997476
22.050000 -0.674818 -0.998065
22.100000 -0.664220 -0.998644
22.150000 -0.661725 -0.999212
22.200000 -0.667335 -0.999771
22.250000 -0.680860 -1.000320
22.300000 -0.701917 -1.000859
22.350000 -0.729950 -1.001389
22.400000 -0.764239 -1.001909
22.450000 -0.803919 -1.002420
22.500000 -0.848005 -1.002923
22.550000 -0.895412 -1.003416
22.600000 -0.944989 -1.003901
22.650000 -0.995540 -1.004377
22.700000 -1.045855 -1.004845
22.750000 -1.094742 -1.005305
22.800000 -1.141054 -1.005757
22.850000 -1.183713 -1.006201
22.900000 -1.221740 -1.006637
22.950000 -1.254274 -1.007065
23.000000 -1.280596 -1.007486
23.050000 -1.300137 -1.007900
23.100000 -1.312499 -1.008306
23.150000 -1.317458 -1.008705
23.200000 -1.314971 -1.009097
23.250000 -1.305171 -1.009483
23.300000 -1.288366 -1.009861
23.350000 -1.265031 -1.010233
23.400000 -1.235790 -1.010599
23.450000 -1.201404 -1.010958
23.500000 -1.162752 -1.011311
23.550000 -1.120806 -1.011657
23.600000 -1.076609 -1.011998
23.650000 -1.031247 -1.012332
23.700000 -0.985826 -1.012661
23.750000 -0.941443 -1.012984
23.800000 -0.899161 -1.013301
23.850000 -0.859982 -1.013613
23.900000 -0.824826 -1.013920
23.950000 -0.794507 -1.014221
24.000000 -0.769717 -1.014516
24.050000 -0.751009 -1.014807
24.100000 -0.738785 -1.015092
24.150000 -0.733287 -1.015373
24.200000 -0.734596 -1.015648
24.250000 -0.742628 -1.015919
24.300000 -0.757137 -1.016185
24.350000 -0.777725 -1.016447
24.400000 -0.803852 -1.016703
24.450000 -0.834849 -1.016956
24.500000 -0.869937 -1.017204
24.550000 -0.908246 -1.017447
24.600000 -0.948834 -1.017687
24.650000 -0.990714 -1.017922
24.700000 -1.032878 -1.018153
24.750000 -1.074317 -1.018380
24.800000 -1.114051 -1.018603
24.850000 -1.151147 -1.018822
24.900000 -1.184745 -1.019038
24.950000 -1.214075 -1.019249
25.000000 -1.238477 -1.019457
25.050000 -1.257414 -1.019661
25.100000 -1.270485 -1.019862
25.150000 -1.277433 -1.020059
25.200000 -1.278150 -1.020253
25.250000 -1.272677 -1.020444
25.300000 -1.261206 -1.020631
25.350000 -1.244068 -1.020814
25.400000 -1.221727 -1.020995
25.450000 -1.194770 -1.021173
25.500000 -1.163886 -1.021347
25.550000 -1.129855 -1.021518
25.600000 -1.093524 -1.021687
25.650000 -1.055788 -1.021852
25.700000 -1.017568 -1.022014
25.750000 -0.979788 -1.022174
25.800000 -0.943354 -1.022331
25.850000 -0.909130 -1.022485
25.900000 -0.877921 -1.022637
25.950000 -0.850453 -1.022786
26.000000 -0.827355 -1.022932
26.050000 -0.809145 -1.023076
26.100000 -0.796220 -1.023217
26.150000 -0.788849 -1.023356
26.200000 -0.787161 -1.023492
26.250000 -0.791151 -1.023626
26.300000 -0.800676 -1.023757
26.350000 -0.815464 -1.023887
26.400000 -0.835117 -1.024014
26.450000 -0.859123 -1.024139
26.500000 -0.886873 -1.024261
26.550000 -0.917672 -1.024382
26.600000 -0.950758 -1.024500
26.650000 -0.985320 -1.024617
26.700000 -1.020520 -1.024731
26.750000 -1.055512 -1.024844
26.800000 -1.089461 -1.024954
26.850000 -1.121566 -1.025063
26.900000 -1.151076 -1.025169
26.950000 -1.177308 -1.025274
27.000000 -1.199667 -1.025377
27.050000 -1.217651 -1.025478
27.100000 -1.230871 -1.025577
27.150000 -1.239054 -1.025675
27.200000 -1.242050 -1.025771
27.250000 -1.239835 -1.025865
27.300000 -1.232511 -1.025958
27.350000 -1.220300 -1.026049
27.400000 -1.203539 -1.026139
27.450000 -1.182672 -1.026227
27.500000 -1.158238 -1.026313
27.550000 -1.130855 -1.026398
27.600000 -1.101208 -1.026481
27.650000 -1.070029 -1.026563
27.700000 -1.038080 -1.026644
27.750000 -1.006137 -1.026723
27.800000 -0.974966 -1.026801
27.850000 -0.945310 -1.026877
27.900000 -0.917867 -1.026952
27.950000 -0.893279 -1.027026
28.000000 -0.872112 -1.027098
28.050000 -0.854844 -1.027170
28.100000 -0.841856 -1.027240
28.150000 -0.833425 -1.027308
28.200000 -0.829714 -1.027376
28.250000 -0.830773 -1.027442
28.300000 -0.836535 -1.027508
28.350000 -0.846823 -1.027572
28.400000 -0.861353 -1.027635
28.450000 -0.879740 -1.027697
28.500000 -0.901512 -1.027758
28.550000 -0.926118 -1.027817
28.600000 -0.952946 -1.027876
28.650000 -0.981334 -1.027934
28.700000 -1.010590 -1.027991
28.750000 -1.040006 -1.028046
28.800000 -1.068877 -1.028101
28.850000 -1.096518 -1.028155
28.900000 -1.122277 -1.028208
28.950000 -1.145556 -1.028260
29.000000 -1.165819 -1.028311
29.050000 -1.182609 -1.028361
29.100000 -1.195554 -1.028411
29.150000 -1.204379 -1.028459
29.200000 -1.208911 -1.028507
29.250000 -1.209078 -1.028553
29.300000 -1.204917 -1.028599
29.350000 -1.196566 -1.028645
29.400000 -1.184263 -1.028689
29.450000 -1.168339 -1.028733
29.500000 -1.149208 -1.028776
29.550000 -1.127357 -1.028818
29.600000 -1.103337 -1.028859
29.650000 -1.077741 -1.028900
29.700000 -1.051198 -1.028940
29.750000 -1.024354 -1.028979
29.800000 -0.997856 -1.029018
29.850000 -0.972336 -1.029056
29.900000 -0.948399 -1.029093
29.950000 -0.926606 -1.029130
30.000000 -0.907460 -1.029166
30.050000 -0.891398 -1.029201
30.100000 -0.878780 -1.029236
30.150000 -0.869878 -1.029270
30.200000 -0.864874 -1.029304
30.250000 -0.863855 -1.029337
30.300000 -0.866810 -1.029369
30.350000 -0.873635 -1.029401
30.400000 -0.884133 -1.029432
30.450000 -0.898022 -1.029463
30.500000 -0.914939 -1.029493
30.550000 -0.934453 -1.029523
30.600000 -0.956075 -1.029552
30.650000 -0.979267 -1.029581
30.700000 -1.003463 -1.029609
30.750000 -1.028073 -1.029637
30.800000 -1.052504 -1.029664
30.850000 -1.076174 -1.029691
30.900000 -1.098522 -1.029717
30.950000 -1.119025 -1.029743
31.000000 -1.137209 -1.029768
31.050000 -1.152657 -1.029793
31.100000 -1.165026 -1.029818
31.150000 -1.174046 -1.029842
31.200000 -1.179530 -1.029866
31.250000 -1.181378 -1.029889
31.300000 -1.179580 -1.029912
31.350000 -1.174210 -1.029934
31.400000 -1.165429 -1.029956
31.450000 -1.153478 -1.029978
31.500000 -1.138671 -1.029999
31.550000 -1.121389 -1.030020
31.600000 -1.102069 -1.030041
31.650000 -1.081191 -1.030061
31.700000 -1.059270 -1.030081
31.750000 -1.036842 -1.030101
31.800000 -1.014449 -1.030120
31.850000 -0.992627 -1.030139
31.900000 -0.971895 -1.030157
31.950000 -0.952741 -1.030175
32.000000 -0.935611 -1.030193
32.050000 -0.920897 -1.030211
32.100000 -0.908932 -1.030228
32.150000 -0.899979 -1.030245
32.200000 -0.894226 -1.030262
32.250000 -0.891784 -1.030278
32.300000 -0.892683 -1.030295
32.350000 -0.896872 -1.030310
32.400000 -0.904222 -1.030326
32.450000 -0.914530 -1.030341
32.500000 -0.927523 -1.030356
32.550000 -0.942867 -1.030371
32.600000 -0.960173 -1.030386
32.650000 -0.979011 -1.030400
32.700000 -0.998915 -1.030414
32.750000 -1.019400 -1.030428
32.800000 -1.039969 -1.030441
32.850000 -1.060130 -1.030455
32.900000 -1.079403 -1.030468
32.950000 -1.097334 -1.030481
33.000000 -1.113506 -1.030493
33.050000 -1.127546 -1.030506
33.100000 -1.139137 -1.030518
33.150000 -1.148023 -1.030530
33.200000 -1.154016 -1.030542
33.250000 -1.156996 -1.030553
33.300000 -1.156920 -1.030565
33.350000 -1.153816 -1.030576
33.400000 -1.147785 -1.030587
33.450000 -1.138998 -1.030598
33.500000 -1.127690 -1.030608
33.550000 -1.114154 -1.030619
33.600000 -1.098735 -1.030629
33.650000 -1.081818 -1.030639
33.700000 -1.063822 -1.030649
33.750000 -1.045189 -1.030659
33.800000 -1.026371 -1.030668
33.850000 -1.007821 -1.030678
33.900000 -0.989981 -1.030687
33.950000 -0.973273 -1.030696
34.000000 -0.958087 -1.030705
34.050000 -0.944775 -1.030714
34.100000 -0.933639 -1.030722
34.150000 -0.924927 -1.030731
34.200000 -0.918827 -1.030739
34.250000 -0.915463 -1.030747
34.300000 -0.914892 -1.030756
34.350000 -0.917102 -1.030763
34.400000 -0.922017 -1.030771
34.450000 -0.929496 -1.030779
34.500000 -0.939336 -1.030786
34.550000 -0.951282 -1.030794
34.600000 -0.965029 -1.030801
34.650000 -0.980232 -1.030808
34.700000 -0.996514 -1.030815
34.750000 -1.013475 -1.030822
34.800000 -1.030703 -1.030829
34.850000 -1.047784 -1.030835
34.900000 -1.064308 -1.030842
34.950000 -1.079886 -1.030848
35.000000 -1.094151 -1.030855
35.050000 -1.106775 -1.030861
35.100000 -1.117469 -1.030867
35.150000 -1.125993 -1.030873
35.200000 -1.132163 -1.030879
35.250000 -1.135851 -1.030885
35.300000 -1.136991 -1.030890
35.350000 -1.135578 -1.030896
35.400000 -1.131668 -1.030901
35.450000 -1.125378 -1.030907
35.500000 -1.116878 -1.030912
35.550000 -1.106393 -1.030917
35.600000 -1.094190 -1.030922
35.650000 -1.080578 -1.030927
35.700000 -1.065895 -1.030932
35.750000 -1.050502 -1.030937
35.800000 -1.034776 -1.030942
35.850000 -1.019095 -1.030947
35.900000 -1.003835 -1.030951
35.950000 -0.989360 -1.030956
36.000000 -0.976008 -1.030960
36.050000 -0.964089 -1.030965
36.100000 -0.953879 -1.030969
36.150000 -0.945605 -1.030973
36.200000 -0.939449 -1.030977
36.250000 -0.935542 -1.030981
36.300000 -0.933955 -1.030985
36.350000 -0.934709 -1.030989
36.400000 -0.937763 -1.030993
36.450000 -0.943025 -1.030997
36.500000 -0.950349 -1.031001
36.550000 -0.959542 -1.031005
36.600000 -0.970367 -1.031008
36.650000 -0.982551 -1.031012
36.700000 -0.995790 -1.031015
36.750000 -1.009757 -1.031019
36.800000 -1.024111 -1.031022
36.850000 -1.038505 -1.031025
36.900000 -1.052593 -1.031029
36.950000 -1.066041 -1.031032
37.000000 -1.078533 -1.031035
37.050000 -1.089776 -1.031038
37.100000 -1.099513 -1.031041
37.150000 -1.107524 -1.031044
37.200000 -1.113632 -1.031047
37.250000 -1.117706 -1.031050
37.300000 -1.119668 -1.031053
37.350000 -1.119489 -1.031056
37.400000 -1.117192 -1.031058
37.450000 -1.112851 -1.031061
37.500000 -1.106587 -1.031064
37.550000 -1.098568 -1.031066
37.600000 -1.089002 -1.031069
37.650000 -1.078131 -1.031071
37.700000 -1.066227 -1.031074
37.750000 -1.053585 -1.031076
37.800000 -1.040514 -1.031079
37.850000 -1.027331 -1.031081
37.900000 -1.014354 -1.031083
37.950000 -1.001891 -1.031085
38.000000 -0.990237 -1.031088
38.050000 -0.979665 -1.031090
38.100000 -0.970417 -1.031092
38.150000 -0.962705 -1.031094
38.200000 -0.956699 -1.031096
38.250000 -0.952529 -1.031098
38.300000 -0.950279 -1.031100
38.350000 -0.949985 -1.031102
38.400000 -0.951639 -1.031104
38.450000 -0.955182 -1.031106
38.500000 -0.960514 -1.031108
38.550000 -0.967491 -1.031110
38.600000 -0.975932 -1.031112
38.650000 -0.985621 -1.031113
38.700000 -0.996316 -1.031115
38.750000 -1.007751 -1.031117
38.800000 -1.019646 -1.031119
38.850000 -1.031711 -1.031120
38.900000 -1.043657 -1.031122
38.950000 -1.055198 -1.031123
39.000000 -1.066061 -1.031125
39.050000 -1.075991 -1.031127
39.100000 -1.084759 -1.031128
39.150000 -1.092164 -1.031130
39.200000 -1.098042 -1.031131
39.250000 -1.102265 -1.031133
39.300000 -1.104746 -1.031134
39.350000 -1.105441 -1.031135
39.400000 -1.104349 -1.031137
39.450000 -1.101511 -1.031138
39.500000 -1.097012 -1.031139
39.550000 -1.090974 -1.031141
39.600000 -1.083554 -1.031142
39.650000 -1.074943 -1.031143
39.700000 -1.065358 -1.031144
39.750000 -1.055037 -1.031146
39.800000 -1.044233 -1.031147
39.850000 -1.033211 -1.031148
39.900000 -1.022236 -1.031149
39.950000 -1.011570 -1.031150
40.000000 -1.001467 -1.031151
40.050000 -0.992164 -1.031153
40.100000 -0.983877 -1.031154
40.150000 -0.976796 -1.031155
40.200000 -0.971079 -1.031156
40.250000 -0.966853 -1.031157
40.300000 -0.964204 -1.031158
40.350000 -0.963184 -1.031159
40.400000 -0.963802 -1.031160
40.450000 -0.966028 -1.031161
40.500000 -0.969796 -1.031162
40.550000 -0.975002 -1.031163
40.600000 -0.981509 -1.031163
40.650000 -0.989148 -1.031164
40.700000 -0.997728 -1.031165
40.750000 -1.007033 -1.031166
40.800000 -1.016836 -1.031167
40.850000 -1.026896 -1.031168
40.900000 -1.036971 -1.031169
40.950000 -1.046818 -1.031169
41.000000 -1.056204 -1.031170
41.050000 -1.064907 -1.031171
41.100000 -1.072726 -1.031172
41.150000 -1.079480 -1.031172
41.200000 -1.085018 -1.031173
41.250000 -1.089216 -1.031174
41.300000 -1.091987 -1.031175
41.350000 -1.093275 -1.031175
41.400000 -1.093064 -1.031176
41.450000 -1.091372 -1.031177
41.500000 -1.088251 -1.031177
41.550000 -1.083790 -1.031178
41.600000 -1.078108 -1.031179
41.650000 -1.071350 -1.031179
41.700000 -1.063688 -1.031180
41.750000 -1.055315 -1.031180
41.800000 -1.046436 -1.031181
41.850000 -1.037270 -1.031182
41.900000 -1.028038 -1.031182
41.950000 -1.018962 -1.031183
42.000000 -1.010259 -1.031183
42.050000 -1.002133 -1.031184
42.100000 -0.994775 -1.031184
42.150000 -0.988354 -1.031185
42.200000 -0.983015 -1.031185
42.250000 -0.978878 -1.031186
42.300000 -0.976031 -1.031186
42.350000 -0.974531 -1.031187
42.400000 -0.974402 -1.031187
42.450000 -0.975634 -1.031188
42.500000 -0.978188 -1.031188
42.550000 -0.981989 -1.031189
42.600000 -0.986937 -1.031189
42.650000 -0.992901 -1.031190
42.700000 -0.999732 -1.031190
42.750000 -1.007256 -1.031191
42.800000 -1.015288 -1.031191
42.850000 -1.023630 -1.031191
42.900000 -1.032081 -1.031192
42.950000 -1.040437 -1.031192
43.000000 -1.048498 -1.031193
43.050000 -1.056073 -1.031193
43.100000 -1.062986 -1.031193
43.150000 -1.069076 -1.031194
43.200000 -1.074205 -1.031194
43.250000 -1.078258 -1.031195
43.300000 -1.081148 -1.031195
43.350000 -1.082815 -1.031195
43.400000 -1.083230 -1.031196
43.450000 -1.082395 -1.031196
43.500000 -1.080339 -1.031196
43.550000 -1.077124 -1.031197
43.600000 -1.072837 -1.031197
43.650000 -1.067588 -1.031197
43.700000 -1.061514 -1.031198
43.750000 -1.054766 -1.031198
43.800000 -1.047513 -1.031198
43.850000 -1.039932 -1.031198
43.900000 -1.032208 -1.031199
43.950000 -1.024528 -1.031199
44.000000 -1.017074 -1.031199
44.050000 -1.010025 -1.031200
44.100000 -1.003545 -1.031200
44.150000 -0.997784 -1.031200
44.200000 -0.992875 -1.031200
44.250000 -0.988927 -1.031201
44.300000 -0.986027 -1.031201
44.350000 -0.984235 -1.031201
44.400000 -0.983585 -1.031201
44.450000 -0.984081 -1.031202
44.500000 -0.985703 -1.031202
44.550000 -0.988401 -1.031202
44.600000 -0.992101 -1.031202
44.650000 -0.996705 -1.031203
44.700000 -1.002096 -1.031203
44.750000 -1.008138 -1.031203
44.800000 -1.014679 -1.031203
44.850000 -1.021560 -1.031203
44.900000 -1.028611 -1.031204
44.950000 -1.035662 -1.031204
45.000000 -1.042545 -1.031204
45.050000 -1.049095 -1.031204
45.100000 -1.055160 -1.031204
45.150000 -1.060597 -1.031205
45.200000 -1.065282 -1.031205
45.250000 -1.069110 -1.031205
45.300000 -1.071995 -1.031205
45.350000 -1.073877 -1.031205
45.400000 -1.074721 -1.031205
45.450000 -1.074513 -1.031206
45.500000 -1.073270 -1.031206
45.550000 -1.071030 -1.031206
45.600000 -1.067854 -1.031206
45.650000 -1.063828 -1.031206
45.700000 -1.059056 -1.031206
45.750000 -1.053657 -1.031207
45.800000 -1.047768 -1.031207
45.850000 -1.041534 -1.031207
45.900000 -1.035107 -1.031207
45.950000 -1.028642 -1.031207
46.000000 -1.022296 -1.031207
46.050000 -1.016219 -1.031207
46.100000 -1.010554 -1.031208
46.150000 -1.005434 -1.031208
46.200000 -1.000977 -1.031208
46.250000 -0.997283 -1.031208
46.300000 -0.994434 -1.031208
46.350000 -0.992492 -1.031208
46.400000 -0.991495 -1.031208
46.450000 -0.991458 -1.031208
46.500000 -0.992375 -1.031209
46.550000 -0.994214 -1.031209
46.600000 -0.996924 -1.031209
46.650000 -1.000431 -1.031209
46.700000 -1.004646 -1.031209
46.750000 -1.009460 -1.031209
46.800000 -1.014754 -1.031209
46.850000 -1.020395 -1.031209
46.900000 -1.026246 -1.031209
46.950000 -1.032165 -1.031210
47.000000 -1.038009 -1.031210
47.050000 -1.043639 -1.031210
47.100000 -1.048922 -1.031210
47.150000 -1.053734 -1.031210
47.200000 -1.057964 -1.031210
47.250000 -1.061516 -1.031210
47.300000 -1.064310 -1.031210
47.350000 -1.066287 -1.031210
47.400000 -1.067405 -1.031210
47.450000 -1.067646 -1.031211
47.500000 -1.067012 -1.031211
47.550000 -1.065525 -1.031211
47.600000 -1.063229 -1.031211
47.650000 -1.060186 -1.031211
47.700000 -1.056474 -1.031211
47.750000 -1.052190 -1.031211
47.800000 -1.047441 -1.031211
47.850000 -1.042344 -1.031211
47.900000 -1.037025 -1.031211
47.950000 -1.031613 -1.031211
48.000000 -1.026239 -1.031211
48.050000 -1.021031 -1.031211
48.100000 -1.016113 -1.031211
48.150000 -1.011600 -1.031212
48.200000 -1.007596 -1.031212
48.250000 -1.004194 -1.031212
48.300000 -1.001469 -1.031212
48.350000 -0.999480 -1.031212
48.400000 -0.998270 -1.031212
48.450000 -0.997859 -1.031212
48.500000 -0.998252 -1.031212
48.550000 -0.999431 -1.031212
48.600000 -1.001361 -1.031212
48.650000 -1.003990 -1.031212
48.700000 -1.007249 -1.031212
48.750000 -1.011053 -1.031212
48.800000 -1.015307 -1.031212
48.850000 -1.019905 -1.031212
48.900000 -1.024734 -1.031212
48.950000 -1.029676 -1.031212
49.000000 -1.034611 -1.031213
49.050000 -1.039421 -1.031213
49.100000 -1.043993 -1.031213
49.150000 -1.048218 -1.031213
49.200000 -1.051999 -1.031213
49.250000 -1.055249 -1.031213
49.300000 -1.057893 -1.031213
49.350000 -1.059876 -1.031213
49.400000 -1.061154 -1.031213
49.450000 -1.061703 -1.031213
49.500000 -1.061516 -1.031213
49.550000 -1.060605 -1.031213
49.600000 -1.058998 -1.031213
49.650000 -1.056738 -1.031213
49.700000 -1.053887 -1.031213
49.750000 -1.050517 -1.031213
49.800000 -1.046714 -1.031213
49.850000 -1.042573 -1.031213
49.900000 -1.038196 -1.031213
49.950000 -1.033689 -1.031213
50.000000 -1.029163 -1.031213
50.050000 -1.024726 -1.031213
50.100000 -1.020483 -1.031213
50.150000 -1.016535 -1.031213
50.200000 -1.012972 -1.031214
50.250000 -1.009879 -1.031214
50.300000 -1.007323 -1.031214
50.350000 -1.005363 -1.031214
50.400000 -1.004039 -1.031214
50.450000 -1.003379 -1.031214
50.500000 -1.003391 -1.031214
50.550000 -1.004070 -1.031214
50.600000 -1.005393 -1.031214
50.650000 -1.007324 -1.031214
50.700000 -1.009811 -1.031214
50.750000 -1.012788 -1.031214
50.800000 -1.016181 -1.031214
50.850000 -1.019905 -1.031214
50.900000 -1.023867 -1.031214
50.950000 -1.027971 -1.031214
51.000000 -1.032116 -1.031214
51.050000 -1.036204 -1.031214
51.100000 -1.040136 -1.031214
51.150000 -1.043819 -1.031214
51.200000 -1.047169 -1.031214
51.250000 -1.050106 -1.031214
51.300000 -1.052565 -1.031214
51.350000 -1.054491 -1.031214
51.400000 -1.055842 -1.031214
51.450000 -1.056591 -1.031214
51.500000 -1.056725 -1.031214
51.550000 -1.056247 -1.031214
51.600000 -1.055173 -1.031214
51.650000 -1.053534 -1.031214
51.700000 -1.051374 -1.031214
51.750000 -1.048750 -1.031214
51.800000 -1.045729 -1.031214
51.850000 -1.042386 -1.031214
51.900000 -1.038805 -1.031214
51.950000 -1.035074 -1.031214
52.000000 -1.031282 -1.031214
52.050000 -1.027522 -1.031214
52.100000 -1.023884 -1.031214
52.150000 -1.020453 -1.031214
52.200000 -1.017310 -1.031214
52.250000 -1.014528 -1.031214
52.300000 -1.012170 -1.031214
52.350000 -1.010290 -1.031215
52.400000 -1.008927 -1.031215
52.450000 -1.008110 -1.031215
52.500000 -1.007854 -1.031215
52.550000 -1.008161 -1.031215
52.600000 -1.009017 -1.031215
52.650000 -1.010398 -1.031215
52.700000 -1.012266 -1.031215
52.750000 -1.014571 -1.031215
52.800000 -1.017255 -1.031215
52.850000 -1.020250 -1.031215
52.900000 -1.023482 -1.031215
52.950000 -1.026871 -1.031215
53.000000 -1.030334 -1.031215
53.050000 -1.033788 -1.031215
53.100000 -1.037150 -1.031215
53.150000 -1.040340 -1.031215
53.200000 -1.043284 -1.031215
53.250000 -1.045912 -1.031215
53.300000 -1.048166 -1.031215
53.350000 -1.049993 -1.031215
53.400000 -1.051354 -1.031215
53.450000 -1.052221 -1.031215
53.500000 -1.052576 -1.031215
53.550000 -1.052417 -1.031215
53.600000 -1.051751 -1.031215
53.650000 -1.050598 -1.031215
53.700000 -1.048991 -1.031215
53.750000 -1.046972 -1.031215
53.800000 -1.044593 -1.031215
53.850000 -1.041914 -1.031215
53.900000 -1.039002 -1.031215
53.950000 -1.035929 -1.031215
54.000000 -1.032770 -1.031215
54.050000 -1.029602 -1.031215
54.100000 -1.026499 -1.031215
54.150000 -1.023537 -1.031215
54.200000 -1.020785 -1.031215
54.250000 -1.018307 -1.031215
54.300000 -1.016161 -1.031215
54.350000 -1.014393 -1.031215
54.400000 -1.013045 -1.031215
54.450000 -1.012143 -1.031215
54.500000 -1.011707 -1.031215
54.550000 -1.011742 -1.031215
54.600000 -1.012243 -1.031215
54.650000 -1.013195 -1.031215
54.700000 -1.014571 -1.031215
54.750000 -1.016333 -1.031215
54.800000 -1.018436 -1.031215
54.850000 -1.020827 -1.031215
54.900000 -1.023447 -1.031215
54.950000 -1.026229 -1.031215
55.000000 -1.029107 -1.031215
55.050000 -1.032010 -1.031215
55.100000 -1.034868 -1.031215
55.150000 -1.037614 -1.031215
55.200000 -1.040183 -1.031215
55.250000 -1.042514 -1.031215
55.300000 -1.044554 -1.031215
55.350000 -1.046256 -1.031215
55.400000 -1.047583 -1.031215
55.450000 -1.048506 -1.031215
55.500000 -1.049006 -1.031215
55.550000 -1.049076 -1.031215
55.600000 -1.048717 -1.031215
55.650000 -1.047941 -1.031215
55.700000 -1.046772 -1.031215
55.750000 -1.045240 -1.031215
55.800000 -1.043385 -1.031215
55.850000 -1.041255 -1.031215
55.900000 -1.038903 -1.031215
55.950000 -1.036387 -1.031215
56.000000 -1.033769 -1.031215
56.050000 -1.031113 -1.031215
56.100000 -1.028483 -1.031215
56.150000 -1.025941 -1.031215
56.200000 -1.023548 -1.031215
56.250000 -1.021360 -1.031215
56.300000 -1.019427 -1.031215
56.350000 -1.017793 -1.031215
56.400000 -1.016495 -1.031215
56.450000 -1.015562 -1.031215
56.500000 -1.015012 -1.031215
56.550000 -1.014855 -1.031215
56.600000 -1.015092 -1.031215
56.650000 -1.015713 -1.031215
56.700000 -1.016700 -1.031215
56.750000 -1.018026 -1.031215
56.800000 -1.019657 -1.031215
56.850000 -1.021551 -1.031215
56.900000 -1.023659 -1.031215
56.950000 -1.025930 -1.031215
57.000000 -1.028308 -1.031215
57.050000 -1.030735 -1.031215
57.100000 -1.033152 -1.031215
57.150000 -1.035502 -1.031215
57.200000 -1.037728 -1.031215
57.250000 -1.039779 -1.031215
57.300000 -1.041606 -1.031215
57.350000 -1.043168 -1.031215
57.400000 -1.044430 -1.031215
57.450000 -1.045365 -1.031215
57.500000 -1.045952 -1.031215
57.550000 -1.046181 -1.031215
57.600000 -1.046049 -1.031215
57.650000 -1.045562 -1.031215
57.700000 -1.044736 -1.031215
57.750000 -1.043594 -1.031215
57.800000 -1.042164 -1.031215
57.850000 -1.040485 -1.031215
57.900000 -1.038598 -1.031215
57.950000 -1.036551 -1.031215
58.000000 -1.034394 -1.031215
58.050000 -1.032179 -1.031215
58.100000 -1.029961 -1.031215
58.150000 -1.027793 -1.031215
58.200000 -1.025725 -1.031215
58.250000 -1.023807 -1.031215
58.300000 -1.022084 -1.031215
58.350000 -1.020594 -1.031215
58.400000 -1.019372 -1.031215
58.450000 -1.018445 -1.031215
58.500000 -1.017831 -1.031215
58.550000 -1.017544 -1.031215
58.600000 -1.017587 -1.031215
58.650000 -1.017957 -1.031215
58.700000 -1.018641 -1.031215
58.750000 -1.019620 -1.031215
58.800000 -1.020869 -1.031215
58.850000 -1.022354 -1.031215
58.900000 -1.024039 -1.031215
58.950000 -1.025882 -1.031215
59.000000 -1.027835 -1.031215
59.050000 -1.029853 -1.031215
59.100000 -1.031886 -1.031215
59.150000 -1.033885 -1.031215
59.200000 -1.035803 -1.031215
59.250000 -1.037593 -1.031215
59.300000 -1.039215 -1.031215
59.350000 -1.040632 -1.031215
59.400000 -1.041810 -1.031215
59.450000 -1.042724 -1.031215
59.500000 -1.043354 -1.031215
59.550000 -1.043687 -1.031215
59.600000 -1.043719 -1.031215
59.650000 -1.043451 -1.031215
59.700000 -1.042892 -1.031215
59.750000 -1.042058 -1.031215
59.800000 -1.040971 -1.031215
59.850000 -1.039660 -1.031215
59.900000 -1.038158 -1.031215
59.950000 -1.036503 -1.031215
60.000000 -1.034736 -1.031215
60.050000 -1.032900 -1.031215
60.100000 -1.031039 -1.031215
60.150000 -1.029199 -1.031215
60.200000 -1.027424 -1.031215
60.250000 -1.025755 -1.031215
60.300000 -1.024231 -1.031215
60.350000 -1.022888 -1.031215
60.400000 -1.021757 -1.031215
60.450000 -1.020862 -1.031215
60.500000 -1.020223 -1.031215
60.550000 -1.019853 -1.031215
60.600000 -1.019759 -1.031215
60.650000 -1.019940 -1.031215
60.700000 -1.020390 -1.031215
60.750000 -1.021095 -1.031215
60.800000 -1.022037 -1.031215
60.850000 -1.023190 -1.031215
60.900000 -1.024526 -1.031215
60.950000 -1.026010 -1.031215
61.000000 -1.027606 -1.031215
61.050000 -1.029275 -1.031215
61.100000 -1.030975 -1.031215
61.150000 -1.032666 -1.031215
61.200000 -1.034308 -1.031215
61.250000 -1.035861 -1.031215
61.300000 -1.037290 -1.031215
61.350000 -1.038560 -1.031215
61.400000 -1.039643 -1.031215
61.450000 -1.040515 -1.031215
61.500000 -1.041156 -1.031215
61.550000 -1.041553 -1.031215
61.600000 -1.041699 -1.031215
61.650000 -1.041592 -1.031215
61.700000 -1.041238 -1.031215
61.750000 -1.040646 -1.031215
61.800000 -1.039834 -1.031215
61.850000 -1.038822 -1.031215
61.900000 -1.037637 -1.031215
61.950000 -1.036308 -1.031215
62.000000 -1.034869 -1.031215
62.050000 -1.033355 -1.031215
62.100000 -1.031803 -1.031215
62.150000 -1.030250 -1.031215
62.200000 -1.028734 -1.031215
62.250000 -1.027291 -1.031215
62.300000 -1.025955 -1.031215
62.350000 -1.024756 -1.031215
62.400000 -1.023723 -1.031215
62.450000 -1.022878 -1.031215
62.500000 -1.022240 -1.031215
62.550000 -1.021824 -1.031215
62.600000 -1.021636 -1.031215
62.650000 -1.021679 -1.031215
62.700000 -1.021950 -1.031215
62.750000 -1.022441 -1.031215
62.800000 -1.023138 -1.031215
62.850000 -1.024023 -1.031215
62.900000 -1.025072 -1.031215
62.950000 -1.026259 -1.031215
63.000000 -1.027555 -1.031215
63.050000 -1.028927 -1.031215
63.100000 -1.030342 -1.031215
63.150000 -1.031765 -1.031215
63.200000 -1.033163 -1.031215
63.250000 -1.034502 -1.031215
63.300000 -1.035750 -1.031215
63.350000 -1.036879 -1.031215
63.400000 -1.037862 -1.031215
63.450000 -1.038677 -1.031215
63.500000 -1.039306 -1.031215
63.550000 -1.039736 -1.031215
63.600000 -1.039958 -1.031215
63.650000 -1.039968 -1.031215
63.700000 -1.039768 -1.031215
63.750000 -1.039366 -1.031215
63.800000 -1.038771 -1.031215
63.850000 -1.038001 -1.031215
63.900000 -1.037074 -1.031215
63.950000 -1.036016 -1.031215
64.000000 -1.034851 -1.031215
64.050000 -1.033610 -1.031215
64.100000 -1.032322 -1.031215
64.150000 -1.031019 -1.031215
64.200000 -1.029732 -1.031215
64.250000 -1.028492 -1.031215
64.300000 -1.027328 -1.031215
64.350000 -1.026267 -1.031215
64.400000 -1.025334 -1.031215
64.450000 -1.024551 -1.031215
64.500000 -1.023934 -1.031215
64.550000 -1.023496 -1.031215
64.600000 -1.023248 -1.031215
64.650000 -1.023193 -1.031215
64.700000 -1.023331 -1.031215
64.750000 -1.023656 -1.031215
64.800000 -1.024160 -1.031215
64.850000 -1.024828 -1.031215
64.900000 -1.025644 -1.031215
64.950000 -1.026586 -1.031215
65.000000 -1.027631 -1.031215
65.050000 -1.028752 -1.031215
65.100000 -1.029923 -1.031215
65.150000 -1.031114 -1.031215
65.200000 -1.032298 -1.031215
65.250000 -1.033445 -1.031215
65.300000 -1.034528 -1.031215
65.350000 -1.035523 -1.031215
65.400000 -1.036406 -1.031215
65.450000 -1.037157 -1.031215
65.500000 -1.037758 -1.031215
65.550000 -1.038198 -1.031215
65.600000 -1.038466 -1.031215
65.650000 -1.038559 -1.031215
65.700000 -1.038474 -1.031215
65.750000 -1.038216 -1.031215
65.800000 -1.037793 -1.031215
65.850000 -1.037216 -1.031215
65.900000 -1.036500 -1.031215
65.950000 -1.035663 -1.031215
66.000000 -1.034728 -1.031215
66.050000 -1.033716 -1.031215
66.100000 -1.032653 -1.031215
66.150000 -1.031565 -1.031215
66.200000 -1.030479 -1.031215
66.250000 -1.029419 -1.031215
66.300000 -1.028412 -1.031215
66.350000 -1.027481 -1.031215
66.400000 -1.026647 -1.031215
66.450000 -1.025930 -1.031215
66.500000 -1.025347 -1.031215
66.550000 -1.024909 -1.031215
66.600000 -1.024626 -1.031215
66.650000 -1.024503 -1.031215
66.700000 -1.024542 -1.031215
66.750000 -1.024741 -1.031215
66.800000 -1.025094 -1.031215
66.850000 -1.025590 -1.031215
66.900000 -1.026216 -1.031215
66.950000 -1.026957 -1.031215
67.000000 -1.027793 -1.031215
67.050000 -1.028704 -1.031215
67.100000 -1.029668 -1.031215
67.150000 -1.030660 -1.031215
67.200000 -1.031656 -1.031215
67.250000 -1.032634 -1.031215
67.300000 -1.033568 -1.031215
67.350000 -1.034438 -1.031215
67.400000 -1.035224 -1.031215
67.450000 -1.035906 -1.031215
67.500000 -1.036470 -1.031215
67.550000 -1.036903 -1.031215
67.600000 -1.037196 -1.031215
67.650000 -1.037343 -1.031215
67.700000 -1.037342 -1.031215
67.750000 -1.037194 -1.031215
67.800000 -1.036904 -1.031215
67.850000 -1.036480 -1.031215
67.900000 -1.035934 -1.031215
67.950000 -1.035280 -1.031215
68.000000 -1.034533 -1.031215
68.050000 -1.033714 -1.031215
68.100000 -1.032842 -1.031215
68.150000 -1.031939 -1.031215
68.200000 -1.031026 -1.031215
68.250000 -1.030126 -1.031215
68.300000 -1.029260 -1.031215
68.350000 -1.028448 -1.031215
68.400000 -1.027710 -1.031215
68.450000 -1.027062 -1.031215
68.500000 -1.026520 -1.031215
68.550000 -1.026094 -1.031215
68.600000 -1.025796 -1.031215
68.650000 -1.025629 -1.031215
68.700000 -1.025598 -1.031215
68.750000 -1.025702 -1.031215
68.800000 -1.025937 -1.031215
68.850000 -1.026297 -1.031215
68.900000 -1.026771 -1.031215
68.950000 -1.027348 -1.031215
69.000000 -1.028012 -1.031215
69.050000 -1.028748 -1.031215
69.100000 -1.029536 -1.031215
69.150000 -1.030357 -1.031215
69.200000 -1.031192 -1.031215
69.250000 -1.032020 -1.031215
69.300000 -1.032821 -1.031215
69.350000 -1.033577 -1.031215
69.400000 -1.034270 -1.031215
69.450000 -1.034883 -1.031215
69.500000 -1.035403 -1.031215
69.550000 -1.035819 -1.031215
69.600000 -1.036120 -1.031215
69.650000 -1.036301 -1.031215
69.700000 -1.036359 -1.031215
69.750000 -1.036292 -1.031215
69.800000 -1.036105 -1.031215
69.850000 -1.035802 -1.031215
69.900000 -1.035392 -1.031215
69.950000 -1.034886 -1.031215
70.000000 -1.034295 -1.031215
70.050000 -1.033637 -1.031215
70.100000 -1.032926 -1.031215
70.150000 -1.032180 -1.031215
70.200000 -1.031417 -1.031215
70.250000 -1.030657 -1.031215
70.300000 -1.029916 -1.031215
70.350000 -1.029214 -1.031215
70.400000 -1.028565 -1.031215
70.450000 -1.027985 -1.031215
70.500000 -1.027488 -1.031215
70.550000 -1.027085 -1.031215
70.600000 -1.026784 -1.031215
70.650000 -1.026592 -1.031215
70.700000 -1.026513 -1.031215
70.750000 -1.026546 -1.031215
70.800000 -1.026692 -1.031215
70.850000 -1.026945 -1.031215
70.900000 -1.027297 -1.031215
70.950000 -1.027741 -1.031215
71.000000 -1.028264 -1.031215
71.050000 -1.028853 -1.031215
71.100000 -1.029494 -1.031215
71.150000 -1.030170 -1.031215
71.200000 -1.030866 -1.031215
71.250000 -1.031563 -1.031215
71.300000 -1.032246 -1.031215
71.350000 -1.032899 -1.031215
71.400000 -1.033506 -1.031215
71.450000 -1.034052 -1.031215
71.500000 -1.034525 -1.031215
71.550000 -1.034915 -1.031215
71.600000 -1.035213 -1.031215
71.650000 -1.035413 -1.031215
71.700000 -1.035510 -1.031215
71.750000 -1.035503 -1.031215
71.800000 -1.035394 -1.031215
71.850000 -1.035185 -1.031215
71.900000 -1.034884 -1.031215
71.950000 -1.034497 -1.031215
72.000000 -1.034034 -1.031215
72.050000 -1.033508 -1.031215
72.100000 -1.032932 -1.031215
72.150000 -1.032320 -1.031215
72.200000 -1.031686 -1.031215
72.250000 -1.031047 -1.031215
72.300000 -1.030418 -1.031215
72.350000 -1.029813 -1.031215
72.400000 -1.029247 -1.031215
72.450000 -1.028733 -1.031215
72.500000 -1.028283 -1.031215
72.550000 -1.027907 -1.031215
72.600000 -1.027614 -1.031215
72.650000 -1.027410 -1.031215
72.700000 -1.027299 -1.031215
72.750000 -1.027283 -1.031215
72.800000 -1.027361 -1.031215
72.850000 -1.027531 -1.031215
72.900000 -1.027787 -1.031215
72.950000 -1.028124 -1.031215
73.000000 -1.028531 -1.031215
73.050000 -1.029000 -1.031215
73.100000 -1.029517 -1.031215
73.150000 -1.030071 -1.031215
73.200000 -1.030647 -1.031215
73.250000 -1.031232 -1.031215
73.300000 -1.031811 -1.031215
73.350000 -1.032371 -1.031215
73.400000 -1.032898 -1.031215
73.450000 -1.033380 -1.031215
73.500000 -1.033807 -1.031215
73.550000 -1.034167 -1.031215
73.600000 -1.034454 -1.031215
73.650000 -1.034660 -1.031215
73.700000 -1.034782 -1.031215
73.750000 -1.034817 -1.031215
73.800000 -1.034766 -1.031215
73.850000 -1.034630 -1.031215
73.900000 -1.034414 -1.031215
73.950000 -1.034123 -1.031215
74.000000 -1.033764 -1.031215
74.050000 -1.033348 -1.031215
74.100000 -1.032884 -1.031215
74.150000 -1.032384 -1.031215
74.200000 -1.031861 -1.031215
74.250000 -1.031327 -1.031215
74.300000 -1.030795 -1.031215
74.350000 -1.030277 -1.031215
74.400000 -1.029787 -1.031215
74.450000 -1.029335 -1.031215
74.500000 -1.028932 -1.031215
74.550000 -1.028587 -1.031215
74.600000 -1.028308 -1.031215
74.650000 -1.028102 -1.031215
74.700000 -1.027972 -1.031215
74.750000 -1.027921 -1.031215
74.800000 -1.027949 -1.031215
74.850000 -1.028055 -1.031215
74.900000 -1.028236 -1.031215
74.950000 -1.028487 -1.031215
75.000000 -1.028801 -1.031215
75.050000 -1.029170 -1.031215
75.100000 -1.029585 -1.031215
75.150000 -1.030036 -1.031215
75.200000 -1.030511 -1.031215
75.250000 -1.030998 -1.031215
75.300000 -1.031486 -1.031215
75.350000 -1.031964 -1.031215
75.400000 -1.032420 -1.031215
75.450000 -1.032842 -1.031215
75.500000 -1.033222 -1.031215
75.550000 -1.033551 -1.031215
75.600000 -1.033820 -1.031215
75.650000 -1.034025 -1.031215
75.700000 -1.034161 -1.031215
75.750000 -1.034225 -1.031215
75.800000 -1.034216 -1.031215
75.850000 -1.034136 -1.031215
75.900000 -1.033986 -1.031215
75.950000 -1.033771 -1.031215
76.000000 -1.033497 -1.031215
76.050000 -1.033170 -1.031215
76.100000 -1.032799 -1.031215
76.150000 -1.032394 -1.031215
76.200000 -1.031964 -1.031215
76.250000 -1.031520 -1.031215
76.300000 -1.031072 -1.031215
76.350000 -1.030632 -1.031215
76.400000 -1.030210 -1.031215
76.450000 -1.029815 -1.031215
76.500000 -1.029458 -1.031215
76.550000 -1.029145 -1.031215
76.600000 -1.028885 -1.031215
76.650000 -1.028684 -1.031215
76.700000 -1.028544 -1.031215
76.750000 -1.028470 -1.031215
76.800000 -1.028462 -1.031215
76.850000 -1.028521 -1.031215
76.900000 -1.028643 -1.031215
76.950000 -1.028826 -1.031215
77.000000 -1.029065 -1.031215
77.050000 -1.029353 -1.031215
77.100000 -1.029683 -1.031215
77.150000 -1.030047 -1.031215
77.200000 -1.030436 -1.031215
77.250000 -1.030840 -1.031215
77.300000 -1.031250 -1.031215
77.350000 -1.031655 -1.031215
77.400000 -1.032046 -1.031215
77.450000 -1.032414 -1.031215
77.500000 -1.032750 -1.031215
77.550000 -1.033046 -1.031215
77.600000 -1.033296 -1.031215
77.650000 -1.033493 -1.031215
77.700000 -1.033634 -1.031215
77.750000 -1.033716 -1.031215
77.800000 -1.033738 -1.031215
77.850000 -1.033699 -1.031215
77.900000 -1.033600 -1.031215
77.950000 -1.033446 -1.031215
78.000000 -1.033239 -1.031215
78.050000 -1.032985 -1.031215
78.100000 -1.032692 -1.031215
78.150000 -1.032365 -1.031215
78.200000 -1.032014 -1.031215
78.250000 -1.031647 -1.031215
78.300000 -1.031272 -1.031215
78.350000 -1.030900 -1.031215
78.400000 -1.030538 -1.031215
78.450000 -1.030196 -1.031215
78.500000 -1.029881 -1.031215
78.550000 -1.029601 -1.031215
78.600000 -1.029362 -1.031215
78.650000 -1.029170 -1.031215
78.700000 -1.029028 -1.031215
78.750000 -1.028940 -1.031215
78.800000 -1.028907 -1.031215
78.850000 -1.028930 -1.031215
78.900000 -1.029008 -1.031215
78.950000 -1.029137 -1.031215
79.000000 -1.029316 -1.031215
79.050000 -1.029538 -1.031215
79.100000 -1.029799 -1.031215
79.150000 -1.030091 -1.031215
79.200000 -1.030408 -1.031215
79.250000 -1.030741 -1.031215
79.300000 -1.031082 -1.031215
79.350000 -1.031424 -1.031215
79.400000 -1.031758 -1.031215
79.450000 -1.032076 -1.031215
79.500000 -1.032371 -1.031215
79.550000 -1.032635 -1.031215
79.600000 -1.032863 -1.031215
79.650000 -1.033049 -1.031215
79.700000 -1.033190 -1.031215
79.750000 -1.033282 -1.031215
79.800000 -1.033324 -1.031215
79.850000 -1.033315 -1.031215
79.900000 -1.033256 -1.031215
79.950000 -1.033149 -1.031215
80.000000 -1.032996 -1.031215
80.050000 -1.032801 -1.031215
80.100000 -1.032571 -1.031215
80.150000 -1.032309 -1.031215
80.200000 -1.032024 -1.031215
80.250000 -1.031723 -1.031215
80.300000 -1.031411 -1.031215
80.350000 -1.031098 -1.031215
80.400000 -1.030790 -1.031215
80.450000 -1.030495 -1.031215
80.500000 -1.030220 -1.031215
80.550000 -1.029971 -1.031215
80.600000 -1.029754 -1.031215
80.650000 -1.029574 -1.031215
80.700000 -1.029435 -1.031215
80.750000 -1.029340 -1.031215
80.800000 -1.029291 -1.031215
80.850000 -1.029288 -1.031215
80.900000 -1.029332 -1.031215
80.950000 -1.029420 -1.031215
81.000000 -1.029550 -1.031215
81.050000 -1.029720 -1.031215
81.100000 -1.029923 -1.031215
81.150000 -1.030156 -1.031215
81.200000 -1.030412 -1.031215
81.250000 -1.030685 -1.031215
81.300000 -1.030969 -1.031215
81.350000 -1.031256 -1.031215
81.400000 -1.031539 -1.031215
81.450000 -1.031812 -1.031215
81.500000 -1.032069 -1.031215
81.550000 -1.032303 -1.031215
81.600000 -1.032508 -1.031215
81.650000 -1.032681 -1.031215
81.700000 -1.032817 -1.031215
81.750000 -1.032914 -1.031215
81.800000 -1.032969 -1.031215
81.850000 -1.032982 -1.031215
81.900000 -1.032952 -1.031215
81.950000 -1.032881 -1.031215
82.000000 -1.032770 -1.031215
82.050000 -1.032623 -1.031215
82.100000 -1.032444 -1.031215
82.150000 -1.032237 -1.031215
82.200000 -1.032007 -1.031215
82.250000 -1.031760 -1.031215
82.300000 -1.031503 -1.031215
82.350000 -1.031240 -1.031215
82.400000 -1.030980 -1.031215
82.450000 -1.030727 -1.031215
82.500000 -1.030488 -1.031215
82.550000 -1.030269 -1.031215
82.600000 -1.030075 -1.031215
82.650000 -1.029909 -1.031215
82.700000 -1.029776 -1.031215
82.750000 -1.029679 -1.031215
82.800000 -1.029619 -1.031215
82.850000 -1.029599 -1.031215
82.900000 -1.029617 -1.031215
82.950000 -1.029673 -1.031215
83.000000 -1.029766 -1.031215
83.050000 -1.029893 -1.031215
83.100000 -1.030050 -1.031215
83.150000 -1.030234 -1.031215
83.200000 -1.030440 -1.031215
83.250000 -1.030662 -1.031215
83.300000 -1.030896 -1.031215
83.350000 -1.031136 -1.031215
83.400000 -1.031375 -1.031215
83.450000 -1.031608 -1.031215
83.500000 -1.031830 -1.031215
83.550000 -1.032036 -1.031215
83.600000 -1.032219 -1.031215
83.650000 -1.032377 -1.031215
83.700000 -1.032506 -1.031215
83.750000 -1.032603 -1.031215
83.800000 -1.032666 -1.031215
83.850000 -1.032693 -1.031215
83.900000 -1.032685 -1.031215
83.950000 -1.032641 -1.031215
84.000000 -1.032564 -1.031215
84.050000 -1.032455 -1.031215
84.100000 -1.032318 -1.031215
84.150000 -1.032155 -1.031215
84.200000 -1.031971 -1.031215
84.250000 -1.031770 -1.031215
84.300000 -1.031558 -1.031215
84.350000 -1.031340 -1.031215
84.400000 -1.031121 -1.031215
84.450000 -1.030905 -1.031215
84.500000 -1.030700 -1.031215
84.550000 -1.030508 -1.031215
84.600000 -1.030335 -1.031215
84.650000 -1.030184 -1.031215
84.700000 -1.030060 -1.031215
84.750000 -1.029964 -1.031215
84.800000 -1.029899 -1.031215
84.850000 -1.029867 -1.031215
84.900000 -1.029866 -1.031215
84.950000 -1.029899 -1.031215
85.000000 -1.029962 -1.031215
85.050000 -1.030055 -1.031215
85.100000 -1.030175 -1.031215
85.150000 -1.030319 -1.031215
85.200000 -1.030483 -1.031215
85.250000 -1.030663 -1.031215
85.300000 -1.030855 -1.031215
85.350000 -1.031054 -1.031215
85.400000 -1.031255 -1.031215
85.450000 -1.031453 -1.031215
85.500000 -1.031644 -1.031215
85.550000 -1.031823 -1.031215
85.600000 -1.031986 -1.031215
85.650000 -1.032128 -1.031215
85.700000 -1.032248 -1.031215
85.750000 -1.032342 -1.031215
85.800000 -1.032408 -1.031215
85.850000 -1.032445 -1.031215
85.900000 -1.032452 -1.031215
85.950000 -1.032430 -1.031215
86.000000 -1.032378 -1.031215
86.050000 -1.032299 -1.031215
86.100000 -1.032195 -1.031215
86.150000 -1.032068 -1.031215
86.200000 -1.031922 -1.031215
86.250000 -1.031761 -1.031215
86.300000 -1.031587 -1.031215
86.350000 -1.031406 -1.031215
86.400000 -1.031223 -1.031215
86.450000 -1.031040 -1.031215
86.500000 -1.030864 -1.031215
86.550000 -1.030697 -1.031215
86.600000 -1.030544 -1.031215
86.650000 -1.030409 -1.031215
86.700000 -1.030294 -1.031215
86.750000 -1.030203 -1.031215
86.800000 -1.030136 -1.031215
86.850000 -1.030096 -1.031215
86.900000 -1.030083 -1.031215
86.950000 -1.030097 -1.031215
87.000000 -1.030138 -1.031215
87.050000 -1.030205 -1.031215
87.100000 -1.030295 -1.031215
87.150000 -1.030406 -1.031215
87.200000 -1.030536 -1.031215
87.250000 -1.030681 -1.031215
87.300000 -1.030837 -1.031215
87.350000 -1.031001 -1.031215
87.400000 -1.031169 -1.031215
87.450000 -1.031337 -1.031215
87.500000 -1.031500 -1.031215
87.550000 -1.031655 -1.031215
87.600000 -1.031798 -1.031215
87.650000 -1.031925 -1.031215
87.700000 -1.032035 -1.031215
87.750000 -1.032124 -1.031215
87.800000 -1.032190 -1.031215
87.850000 -1.032233 -1.031215
87.900000 -1.032251 -1.031215
87.950000 -1.032244 -1.031215
88.000000 -1.032212 -1.031215
88.050000 -1.032156 -1.031215
88.100000 -1.032079 -1.031215
88.150000 -1.031981 -1.031215
88.200000 -1.031866 -1.031215
88.250000 -1.031737 -1.031215
88.300000 -1.031596 -1.031215
88.350000 -1.031447 -1.031215
88.400000 -1.031294 -1.031215
88.450000 -1.031140 -1.031215
88.500000 -1.030990 -1.031215
88.550000 -1.030846 -1.031215
88.600000 -1.030713 -1.031215
88.650000 -1.030592 -1.031215
88.700000 -1.030488 -1.031215
88.750000 -1.030402 -1.031215
88.800000 -1.030336 -1.031215
88.850000 -1.030292 -1.031215
88.900000 -1.030270 -1.031215
88.950000 -1.030271 -1.031215
89.000000 -1.030295 -1.031215
89.050000 -1.030341 -1.031215
89.100000 -1.030407 -1.031215
89.150000 -1.030492 -1.031215
89.200000 -1.030594 -1.031215
89.250000 -1.030709 -1.031215
89.300000 -1.030836 -1.031215
89.350000 -1.030971 -1.031215
89.400000 -1.031110 -1.031215
89.450000 -1.031251 -1.031215
89.500000 -1.031390 -1.031215
89.550000 -1.031523 -1.031215
89.600000 -1.031648 -1.031215
89.650000 -1.031761 -1.031215
89.700000 -1.031860 -1.031215
89.750000 -1.031943 -1.031215
89.800000 -1.032008 -1.031215
89.850000 -1.032053 -1.031215
89.900000 -1.032078 -1.031215
89.950000 -1.032081 -1.031215
90.000000 -1.032064 -1.031215
90.050000 -1.032027 -1.031215
90.100000 -1.031971 -1.031215
90.150000 -1.031897 -1.031215
90.200000 -1.031807 -1.031215
90.250000 -1.031704 -1.031215
90.300000 -1.031591 -1.031215
90.350000 -1.031469 -1.031215
90.400000 -1.031342 -1.031215
90.450000 -1.031213 -1.031215
90.500000 -1.031086 -1.031215
90.550000 -1.030962 -1.031215
90.600000 -1.030846 -1.031215
90.650000 -1.030740 -1.031215
90.700000 -1.030646 -1.031215
90.750000 -1.030566 -1.031215
90.800000 -1.030503 -1.031215
90.850000 -1.030457 -1.031215
90.900000 -1.030430 -1.031215
90.950000 -1.030422 -1.031215
91.000000 -1.030433 -1.031215
91.050000 -1.030463 -1.031215
91.100000 -1.030511 -1.031215
91.150000 -1.030575 -1.031215
91.200000 -1.030653 -1.031215
91.250000 -1.030745 -1.031215
91.300000 -1.030847 -1.031215
91.350000 -1.030957 -1.031215
91.400000 -1.031072 -1.031215
91.450000 -1.031190 -1.031215
91.500000 -1.031307 -1.031215
91.550000 -1.031421 -1.031215
91.600000 -1.031529 -1.031215
91.650000 -1.031629 -1.031215
91.700000 -1.031717 -1.031215
91.750000 -1.031793 -1.031215
91.800000 -1.031855 -1.031215
91.850000 -1.031900 -1.031215
91.900000 -1.031929 -1.031215
91.950000 -1.031941 -1.031215
92.000000 -1.031935 -1.031215
92.050000 -1.031912 -1.031215
92.100000 -1.031872 -1.031215
92.150000 -1.031817 -1.031215
92.200000 -1.031748 -1.031215
92.250000 -1.031667 -1.031215
92.300000 -1.031575 -1.031215
92.350000 -1.031476 -1.031215
92.400000 -1.031372 -1.031215
92.450000 -1.031264 -1.031215
92.500000 -1.031157 -1.031215
92.550000 -1.031052 -1.031215
92.600000 -1.030951 -1.031215
92.650000 -1.030858 -1.031215
92.700000 -1.030774 -1.031215
92.750000 -1.030702 -1.031215
92.800000 -1.030642 -1.031215
92.850000 -1.030597 -1.031215
92.900000 -1.030567 -1.031215
92.950000 -1.030553 -1.031215
93.000000 -1.030555 -1.031215
93.050000 -1.030572 -1.031215
93.100000 -1.030605 -1.031215
93.150000 -1.030652 -1.031215
93.200000 -1.030712 -1.031215
93.250000 -1.030784 -1.031215
93.300000 -1.030866 -1.031215
93.350000 -1.030955 -1.031215
93.400000 -1.031050 -1.031215
93.450000 -1.031147 -1.031215
93.500000 -1.031246 -1.031215
93.550000 -1.031343 -1.031215
93.600000 -1.031436 -1.031215
93.650000 -1.031523 -1.031215
93.700000 -1.031602 -1.031215
93.750000 -1.031671 -1.031215
93.800000 -1.031728 -1.031215
93.850000 -1.031772 -1.031215
93.900000 -1.031803 -1.031215
93.950000 -1.031820 -1.031215
94.000000 -1.031822 -1.031215
94.050000 -1.031809 -1.031215
94.100000 -1.031782 -1.031215
94.150000 -1.031742 -1.031215
94.200000 -1.031690 -1.031215
94.250000 -1.031626 -1.031215
94.300000 -1.031554 -1.031215
94.350000 -1.031474 -1.031215
94.400000 -1.031388 -1.031215
94.450000 -1.031299 -1.031215
94.500000 -1.031209 -1.031215
94.550000 -1.031120 -1.031215
94.600000 -1.031033 -1.031215
94.650000 -1.030952 -1.031215
94.700000 -1.030878 -1.031215
94.750000 -1.030813 -1.031215
94.800000 -1.030758 -1.031215
94.850000 -1.030714 -1.031215
94.900000 -1.030683 -1.031215
94.950000 -1.030665 -1.031215
95.000000 -1.030660 -1.031215
95.050000 -1.030669 -1.031215
95.100000 -1.030690 -1.031215
95.150000 -1.030724 -1.031215
95.200000 -1.030769 -1.031215
95.250000 -1.030825 -1.031215
95.300000 -1.030890 -1.031215
95.350000 -1.030962 -1.031215
95.400000 -1.031039 -1.031215
95.450000 -1.031120 -1.031215
95.500000 -1.031202 -1.031215
95.550000 -1.031284 -1.031215
95.600000 -1.031364 -1.031215
95.650000 -1.031439 -1.031215
95.700000 -1.031508 -1.031215
95.750000 -1.031570 -1.031215
95.800000 -1.031623 -1.031215
95.850000 -1.031665 -1.031215
95.900000 -1.031697 -1.031215
95.950000 -1.031716 -1.031215
96.000000 -1.031724 -1.031215
96.050000 -1.031719 -1.031215
96.100000 -1.031702 -1.031215
96.150000 -1.031673 -1.031215
96.200000 -1.031634 -1.031215
96.250000 -1.031585 -1.031215
96.300000 -1.031528 -1.031215
96.350000 -1.031464 -1.031215
96.400000 -1.031394 -1.031215
96.450000 -1.031321 -1.031215
96.500000 -1.031245 -1.031215
96.550000 -1.031170 -1.031215
96.600000 -1.031097 -1.031215
96.650000 -1.031027 -1.031215
96.700000 -1.030962 -1.031215
96.750000 -1.030903 -1.031215
96.800000 -1.030853 -1.031215
96.850000 -1.030812 -1.031215
96.900000 -1.030781 -1.031215
96.950000 -1.030760 -1.031215
97.000000 -1.030751 -1.031215
97.050000 -1.030753 -1.031215
97.100000 -1.030766 -1.031215
97.150000 -1.030789 -1.031215
97.200000 -1.030823 -1.031215
97.250000 -1.030866 -1.031215
97.300000 -1.030916 -1.031215
97.350000 -1.030974 -1.031215
97.400000 -1.031037 -1.031215
97.450000 -1.031103 -1.031215
97.500000 -1.031172 -1.031215
97.550000 -1.031241 -1.031215
97.600000 -1.031308 -1.031215
97.650000 -1.031373 -1.031215
97.700000 -1.031434 -1.031215
97.750000 -1.031489 -1.031215
97.800000 -1.031537 -1.031215
97.850000 -1.031576 -1.031215
97.900000 -1.031607 -1.031215
97.950000 -1.031628 -1.031215
98.000000 -1.031639 -1.031215
98.050000 -1.031640 -1.031215
98.100000 -1.031630 -1.031215
98.150000 -1.031611 -1.031215
98.200000 -1.031582 -1.031215
98.250000 -1.031545 -1.031215
98.300000 -1.031500 -1.031215
98.350000 -1.031449 -1.031215
98.400000 -1.031393 -1.031215
98.450000 -1.031333 -1.031215
98.500000 -1.031270 -1.031215
98.550000 -1.031207 -1.031215
98.600000 -1.031145 -1.031215
98.650000 -1.031085 -1.031215
98.700000 -1.031028 -1.031215
98.750000 -1.030977 -1.031215
98.800000 -1.030931 -1.031215
98.850000 -1.030893 -1.031215
98.900000 -1.030863 -1.031215
98.950000 -1.030842 -1.031215
99.000000 -1.030829 -1.031215
99.050000 -1.030827 -1.031215
99.100000 -1.030833 -1.031215
99.150000 -1.030849 -1.031215
99.200000 -1.030873 -1.031215
99.250000 -1.030905 -1.031215
99.300000 -1.030944 -1.031215
99.350000 -1.030990 -1.031215
99.400000 -1.031041 -1.031215
99.450000 -1.031095 -1.031215
99.500000 -1.031152 -1.031215
99.550000 -1.031209 -1.031215
99.600000 -1.031267 -1.031215
99.650000 -1.031322 -1.031215
99.700000 -1.031375 -1.031215
99.750000 -1.031423 -1.031215
99.800000 -1.031466 -1.031215
99.850000 -1.031503 -1.031215
99.900000 -1.031532 -1.031215
99.950000 -1.031554 -1.031215
100.000000 -1.031567 -1.031215
100.050000 -1.031571 -1.031215
100.100000 -1.031567 -1.031215
100.150000 -1.031555 -1.031215
100.200000 -1.031535 -1.031215
100.250000 -1.031507 -1.031215
100.300000 -1.031472 -1.031215
100.350000 -1.031432 -1.031215
100.400000 -1.031387 -1.031215
100.450000 -1.031338 -1.031215
100.500000 -1.031286 -1.031215
100.550000 -1.031234 -1.031215
100.600000 -1.031181 -1.031215
100.650000 -1.031129 -1.031215
100.700000 -1.031081 -1.031215
100.750000 -1.031035 -1.031215
100.800000 -1.030995 -1.031215
100.850000 -1.030960 -1.031215
100.900000 -1.030931 -1.031215
100.950000 -1.030910 -1.031215
101.000000 -1.030896 -1.031215
101.050000 -1.030890 -1.031215
101.100000 -1.030892 -1.031215
101.150000 -1.030901 -1.031215
101.200000 -1.030918 -1.031215
101.250000 -1.030942 -1.031215
101.300000 -1.030972 -1.031215
101.350000 -1.031008 -1.031215
101.400000 -1.031049 -1.031215
101.450000 -1.031093 -1.031215
101.500000 -1.031139 -1.031215
101.550000 -1.031187 -1.031215
101.600000 -1.031236 -1.031215
101.650000 -1.031283 -1.031215
101.700000 -1.031329 -1.031215
101.750000 -1.031371 -1.031215
101.800000 -1.031409 -1.031215
101.850000 -1.031442 -1.031215
101.900000 -1.031470 -1.031215
101.950000 -1.031491 -1.031215
102.000000 -1.031505 -1.031215
102.050000 -1.031512 -1.031215
102.100000 -1.031512 -1.031215
102.150000 -1.031505 -1.031215
102.200000 -1.031492 -1.031215
102.250000 -1.031471 -1.031215
102.300000 -1.031445 -1.031215
102.350000 -1.031413 -1.031215
102.400000 -1.031377 -1.031215
102.450000 -1.031337 -1.031215
102.500000 -1.031295 -1.031215
102.550000 -1.031251 -1.031215
102.600000 -1.031207 -1.031215
102.650000 -1.031164 -1.031215
102.700000 -1.031122 -1.031215
102.750000 -1.031082 -1.031215
102.800000 -1.031046 -1.031215
102.850000 -1.031015 -1.031215
102.900000 -1.030988 -1.031215
102.950000 -1.030968 -1.031215
103.000000 -1.030953 -1.031215
103.050000 -1.030945 -1.031215
103.100000 -1.030943 -1.031215
103.150000 -1.030948 -1.031215
103.200000 -1.030959 -1.031215
103.250000 -1.030977 -1.031215
103.300000 -1.030999 -1.031215
103.350000 -1.031027 -1.031215
103.400000 -1.031059 -1.031215
103.450000 -1.031095 -1.031215
103.500000 -1.031133 -1.031215
103.550000 -1.031173 -1.031215
103.600000 -1.031213 -1.031215
103.650000 -1.031254 -1.031215
103.700000 -1.031292 -1.031215
103.750000 -1.031329 -1.031215
103.800000 -1.031363 -1.031215
103.850000 -1.031393 -1.031215
103.900000 -1.031418 -1.031215
103.950000 -1.031438 -1.031215
104.000000 -1.031453 -1.031215
104.050000 -1.031462 -1.031215
104.100000 -1.031465 -1.031215
104.150000 -1.031462 -1.031215
104.200000 -1.031453 -1.031215
104.250000 -1.031438 -1.031215
104.300000 -1.031418 -1.031215
104.350000 -1.031394 -1.031215
104.400000 -1.031365 -1.031215
104.450000 -1.031333 -1.031215
104.500000 -1.031299 -1.031215
104.550000 -1.031263 -1.031215
104.600000 -1.031226 -1.031215
104.650000 -1.031189 -1.031215
104.700000 -1.031153 -1.031215
104.750000 -1.031119 -1.031215
104.800000 -1.031088 -1.031215
104.850000 -1.031059 -1.031215
104.900000 -1.031035 -1.031215
104.950000 -1.031016 -1.031215
105.000000 -1.031001 -1.031215
105.050000 -1.030991 -1.031215
105.100000 -1.030987 -1.031215
105.150000 -1.030989 -1.031215
105.200000 -1.030996 -1.031215
105.250000 -1.031008 -1.031215
105.300000 -1.031025 -1.031215
105.350000 -1.031047 -1.031215
105.400000 -1.031072 -1.031215
105.450000 -1.031100 -1.031215
105.500000 -1.031131 -1.031215
105.550000 -1.031164 -1.031215
105.600000 -1.031198 -1.031215
105.650000 -1.031232 -1.031215
105.700000 -1.031265 -1.031215
105.750000 -1.031296 -1.031215
105.800000 -1.031326 -1.031215
105.850000 -1.031352 -1.031215
105.900000 -1.031375 -1.031215
105.950000 -1.031394 -1.031215
106.000000 -1.031409 -1.031215
106.050000 -1.031419 -1.031215
106.100000 -1.031424 -1.031215
106.150000 -1.031423 -1.031215
106.200000 -1.031418 -1.031215
106.250000 -1.031408 -1.031215
106.300000 -1.031394 -1.031215
106.350000 -1.031375 -1.031215
106.400000 -1.031353 -1.031215
106.450000 -1.031327 -1.031215
106.500000 -1.031299 -1.031215
106.550000 -1.031270 -1.031215
106.600000 -1.031239 -1.031215
106.650000 -1.031208 -1.031215
106.700000 -1.031177 -1.031215
106.750000 -1.031148 -1.031215
106.800000 -1.031121 -1.031215
106.850000 -1.031096 -1.031215
106.900000 -1.031074 -1.031215
106.950000 -1.031055 -1.031215
107.000000 -1.031041 -1.031215
107.050000 -1.031031 -1.031215
107.100000 -1.031026 -1.031215
107.150000 -1.031025 -1.031215
107.200000 -1.031028 -1.031215
107.250000 -1.031037 -1.031215
107.300000 -1.031049 -1.031215
107.350000 -1.031065 -1.031215
107.400000 -1.031085 -1.031215
107.450000 -1.031108 -1.031215
107.500000 -1.031133 -1.031215
107.550000 -1.031159 -1.031215
107.600000 -1.031187 -1.031215
107.650000 -1.031216 -1.031215
107.700000 -1.031244 -1.031215
107.750000 -1.031271 -1.031215
107.800000 -1.031296 -1.031215
107.850000 -1.031320 -1.031215
107.900000 -1.031341 -1.031215
107.950000 -1.031358 -1.031215
108.000000 -1.031372 -1.031215
108.050000 -1.031382 -1.031215
108.100000 -1.031388 -1.031215
108.150000 -1.031390 -1.031215
108.200000 -1.031388 -1.031215
108.250000 -1.031381 -1.031215
108.300000 -1.031371 -1.031215
108.350000 -1.031357 -1.031215
108.400000 -1.031339 -1.031215
108.450000 -1.031319 -1.031215
108.500000 -1.031297 -1.031215
108.550000 -1.031273 -1.031215
108.600000 -1.031247 -1.031215
108.650000 -1.031221 -1.031215
108.700000 -1.031196 -1.031215
108.750000 -1.031170 -1.031215
108.800000 -1.031147 -1.031215
108.850000 -1.031125 -1.031215
108.900000 -1.031105 -1.031215
108.950000 -1.031088 -1.031215
109.000000 -1.031075 -1.031215
109.050000 -1.031065 -1.031215
109.100000 -1.031058 -1.031215
109.150000 -1.031056 -1.031215
109.200000 -1.031057 -1.031215
109.250000 -1.031062 -1.031215
109.300000 -1.031071 -1.031215
109.350000 -1.031083 -1.031215
109.400000 -1.031098 -1.031215
109.450000 -1.031116 -1.031215
109.500000 -1.031136 -1.031215
109.550000 -1.031158 -1.031215
109.600000 -1.031181 -1.031215
109.650000 -1.031204 -1.031215
109.700000 -1.031228 -1.031215
109.750000 -1.031251 -1.031215
109.800000 -1.031273 -1.031215
109.850000 -1.031294 -1.031215
109.900000 -1.031312 -1.031215
109.950000 -1.031328 -1.031215
110.000000 -1.031341 -1.031215
110.050000 -1.031351 -1.031215
110.100000 -1.031358 -1.031215
110.150000 -1.031361 -1.031215
110.200000 -1.031361 -1.031215
110.250000 -1.031357 -1.031215
110.300000 -1.031350 -1.031215
110.350000 -1.031340 -1.031215
110.400000 -1.031326 -1.031215
110.450000 -1.031311 -1.031215
110.500000 -1.031293 -1.031215
110.550000 -1.031273 -1.031215
110.600000 -1.031252 -1.031215
110.650000 -1.031231 -1.031215
110.700000 -1.031209 -1.031215
110.750000 -1.031188 -1.031215
110.800000 -1.031167 -1.031215
110.850000 -1.031148 -1.031215
110.900000 -1.031131 -1.031215
110.950000 -1.031115 -1.031215
111.000000 -1.031103 -1.031215
111.050000 -1.031093 -1.031215
111.100000 -1.031086 -1.031215
111.150000 -1.031082 -1.031215
111.200000 -1.031082 -1.031215
111.250000 -1.031085 -1.031215
111.300000 -1.031091 -1.031215
111.350000 -1.031099 -1.031215
111.400000 -1.031111 -1.031215
111.450000 -1.031125 -1.031215
111.500000 -1.031141 -1.031215
111.550000 -1.031158 -1.031215
111.600000 -1.031177 -1.031215
111.650000 -1.031197 -1.031215
111.700000 -1.031217 -1.031215
111.750000 -1.031236 -1.031215
111.800000 -1.031255 -1.031215
111.850000 -1.031273 -1.031215
111.900000 -1.031289 -1.031215
111.950000 -1.031304 -1.031215
112.000000 -1.031316 -1.031215
112.050000 -1.031326 -1.031215
112.100000 -1.031333 -1.031215
112.150000 -1.031337 -1.031215
112.200000 -1.031338 -1.031215
112.250000 -1.031336 -1.031215
112.300000 -1.031331 -1.031215
112.350000 -1.031324 -1.031215
112.400000 -1.031314 -1.031215
112.450000 -1.031301 -1.031215
112.500000 -1.031287 -1.031215
112.550000 -1.031271 -1.031215
112.600000 -1.031254 -1.031215
112.650000 -1.031237 -1.031215
112.700000 -1.031219 -1.031215
112.750000 -1.031201 -1.031215
112.800000 -1.031183 -1.031215
112.850000 -1.031166 -1.031215
112.900000 -1.031151 -1.031215
112.950000 -1.031137 -1.031215
113.000000 -1.031126 -1.031215
113.050000 -1.031116 -1.031215
113.100000 -1.031110 -1.031215
113.150000 -1.031105 -1.031215
113.200000 -1.031104 -1.031215
113.250000 -1.031105 -1.031215
113.300000 -1.031108 -1.031215
113.350000 -1.031115 -1.031215
113.400000 -1.031123 -1.031215
113.450000 -1.031134 -1.031215
113.500000 -1.031146 -1.031215
113.550000 -1.031161 -1.031215
113.600000 -1.031176 -1.031215
113.650000 -1.031192 -1.031215
113.700000 -1.031209 -1.031215
113.750000 -1.031225 -1.031215
113.800000 -1.031241 -1.031215
113.850000 -1.031257 -1.031215
113.900000 -1.031271 -1.031215
113.950000 -1.031284 -1.031215
114.000000 -1.031295 -1.031215
114.050000 -1.031304 -1.031215
114.100000 -1.031311 -1.031215
114.150000 -1.031316 -1.031215
114.200000 -1.031318 -1.031215
114.250000 -1.031317 -1.031215
114.300000 -1.031314 -1.031215
114.350000 -1.031309 -1.031215
114.400000 -1.031302 -1.031215
114.450000 -1.031293 -1.031215
114.500000 -1.031281 -1.031215
114.550000 -1.031269 -1.031215
114.600000 -1.031255 -1.031215
114.650000 -1.031240 -1.031215
114.700000 -1.031225 -1.031215
114.750000 -1.031210 -1.031215
114.800000 -1.031195 -1.031215
114.850000 -1.031181 -1.031215
114.900000 -1.031167 -1.031215
114.950000 -1.031155 -1.031215
115.000000 -1.031145 -1.031215
115.050000 -1.031136 -1.031215
115.100000 -1.031129 -1.031215
115.150000 -1.031125 -1.031215
115.200000 -1.031122 -1.031215
115.250000 -1.031122 -1.031215
115.300000 -1.031124 -1.031215
115.350000 -1.031128 -1.031215
115.400000 -1.031135 -1.031215
115.450000 -1.031143 -1.031215
115.500000 -1.031153 -1.031215
115.550000 -1.031164 -1.031215
115.600000 -1.031176 -1.031215
115.650000 -1.031189 -1.031215
115.700000 -1.031203 -1.031215
115.750000 -1.031217 -1.031215
115.800000 -1.031231 -1.031215
115.850000 -1.031244 -1.031215
115.900000 -1.031257 -1.031215
115.950000 -1.031268 -1.031215
116.000000 -1.031278 -1.031215
116.050000 -1.031286 -1.031215
116.100000 -1.031293 -1.031215
116.150000 -1.031298 -1.031215
116.200000 -1.031300 -1.031215
116.250000 -1.031301 -1.031215
116.300000 -1.031300 -1.031215
116.350000 -1.031296 -1.031215
116.400000 -1.031291 -1.031215
116.450000 -1.031284 -1.031215
116.500000 -1.031275 -1.031215
116.550000 -1.031265 -1.031215
116.600000 -1.031254 -1.031215
116.650000 -1.031242 -1.031215
116.700000 -1.031230 -1.031215
116.750000 -1.031217 -1.031215
116.800000 -1.031204 -1.031215
116.850000 -1.031192 -1.031215
116.900000 -1.031180 -1.031215
116.950000 -1.031170 -1.031215
117.000000 -1.031160 -1.031215
117.050000 -1.031152 -1.031215
117.100000 -1.031146 -1.031215
117.150000 -1.031141 -1.031215
117.200000 -1.031138 -1.031215
117.250000 -1.031137 -1.031215
117.300000 -1.031138 -1.031215
117.350000 -1.031141 -1.031215
117.400000 -1.031145 -1.031215
117.450000 -1.031151 -1.031215
117.500000 -1.031159 -1.031215
117.550000 -1.031168 -1.031215
117.600000 -1.031178 -1.031215
117.650000 -1.031188 -1.031215
117.700000 -1.031200 -1.031215
117.750000 -1.031211 -1.031215
117.800000 -1.031223 -1.031215
117.850000 -1.031234 -1.031215
117.900000 -1.031245 -1.031215
117.950000 -1.031255 -1.031215
118.000000 -1.031264 -1.031215
118.050000 -1.031272 -1.031215
118.100000 -1.031278 -1.031215
118.150000 -1.031283 -1.031215
118.200000 -1.031286 -1.031215
118.250000 -1.031287 -1.031215
118.300000 -1.031287 -1.031215
118.350000 -1.031285 -1.031215
118.400000 -1.031281 -1.031215
118.450000 -1.031276 -1.031215
118.500000 -1.031269 -1.031215
118.550000 -1.031261 -1.031215
118.600000 -1.031252 -1.031215
118.650000 -1.031243 -1.031215
118.700000 -1.031232 -1.031215
118.750000 -1.031222 -1.031215
118.800000 -1.031211 -1.031215
118.850000 -1.031201 -1.031215
118.900000 -1.031191 -1.031215
118.950000 -1.031181 -1.031215
119.000000 -1.031173 -1.031215
119.050000 -1.031166 -1.031215
119.100000 -1.031160 -1.031215
119.150000 -1.031155 -1.031215
119.200000 -1.031152 -1.031215
119.250000 -1.031150 -1.031215
119.300000 -1.031150 -1.031215
119.350000 -1.031152 -1.031215
119.400000 -1.031155 -1.031215
119.450000 -1.031159 -1.031215
119.500000 -1.031165 -1.031215
119.550000 -1.031172 -1.031215
119.600000 -1.031180 -1.031215
119.650000 -1.031188 -1.031215
119.700000 -1.031198 -1.031215
119.750000 -1.031207 -1.031215
119.800000 -1.031217 -1.031215
119.850000 -1.031227 -1.031215
119.900000 -1.031236 -1.031215
119.950000 -1.031245 -1.031215
120.000000 -1.031253 -1.031215
120.050000 -1.031260 -1.031215
120.100000 -1.031265 -1.031215
120.150000 -1.031270 -1.031215
120.200000 -1.031273 -1.031215
120.250000 -1.031275 -1.031215
120.300000 -1.031275 -1.031215
120.350000 -1.031274 -1.031215
120.400000 -1.031272 -1.031215
120.450000 -1.031268 -1.031215
120.500000 -1.031263 -1.031215
120.550000 -1.031257 -1.031215
120.600000 -1.031250 -1.031215
120.650000 -1.031242 -1.031215
120.700000 -1.031234 -1.031215
120.750000 -1.031225 -1.031215
120.800000 -1.031216 -1.031215
120.850000 -1.031207 -1.031215
120.900000 -1.031199 -1.031215
120.950000 -1.031190 -1.031215
121.000000 -1.031183 -1.031215
121.050000 -1.031176 -1.031215
121.100000 -1.031171 -1.031215
121.150000 -1.031166 -1.031215
121.200000 -1.031163 -1.031215
121.250000 -1.031161 -1.031215
121.300000 -1.031161 -1.031215
121.350000 -1.031161 -1.031215
121.400000 -1.031163 -1.031215
121.450000 -1.031166 -1.031215
121.500000 -1.031171 -1.031215
121.550000 -1.031176 -1.031215
121.600000 -1.031182 -1.031215
121.650000 -1.031189 -1.031215
121.700000 -1.031197 -1.031215
121.750000 -1.031205 -1.031215
121.800000 -1.031213 -1.031215
121.850000 -1.031221 -1.031215
121.900000 -1.031229 -1.031215
121.950000 -1.031237 -1.031215
122.000000 -1.031243 -1.031215
122.050000 -1.031250 -1.031215
122.100000 -1.031255 -1.031215
122.150000 -1.031259 -1.031215
122.200000 -1.031263 -1.031215
122.250000 -1.031265 -1.031215
122.300000 -1.031266 -1.031215
122.350000 -1.031265 -1.031215
122.400000 -1.031264 -1.031215
122.450000 -1.031261 -1.031215
122.500000 -1.031257 -1.031215
122.550000 -1.031253 -1.031215
122.600000 -1.031247 -1.031215
122.650000 -1.031241 -1.031215
122.700000 -1.031234 -1.031215
122.750000 -1.031227 -1.031215
122.800000 -1.031219 -1.031215
122.850000 -1.031212 -1.031215
122.900000 -1.031205 -1.031215
122.950000 -1.031198 -1.031215
123.000000 -1.031191 -1.031215
123.050000 -1.031185 -1.031215
123.100000 -1.031180 -1.031215
123.150000 -1.031176 -1.031215
123.200000 -1.031173 -1.031215
123.250000 -1.031171 -1.031215
123.300000 -1.031170 -1.031215
123.350000 -1.031170 -1.031215
123.400000 -1.031171 -1.031215
123.450000 -1.031173 -1.031215
123.500000 -1.031176 -1.031215
123.550000 -1.031180 -1.031215
123.600000 -1.031185 -1.031215
123.650000 -1.031191 -1.031215
123.700000 -1.031197 -1.031215
123.750000 -1.031203 -1.031215
123.800000 -1.031210 -1.031215
123.850000 -1.031217 -1.031215
123.900000 -1.031224 -1.031215
123.950000 -1.031230 -1.031215
124.000000 -1.031236 -1.031215
124.050000 -1.031242 -1.031215
124.100000 -1.031247 -1.031215
124.150000 -1.031251 -1.031215
124.200000 -1.031254 -1.031215
124.250000 -1.031256 -1.031215
124.300000 -1.031257 -1.031215
124.350000 -1.031257 -1.031215
124.400000 -1.031257 -1.031215
124.450000 -1.031255 -1.031215
124.500000 -1.031252 -1.031215
124.550000 -1.031249 -1.031215
124.600000 -1.031244 -1.031215
124.650000 -1.031239 -1.031215
124.700000 -1.031234 -1.031215
124.750000 -1.031228 -1.031215
124.800000 -1.031222 -1.031215
124.850000 -1.031215 -1.031215
124.900000 -1.031209 -1.031215
124.950000 -1.031203 -1.031215
125.000000 -1.031198 -1.031215
125.050000 -1.031192 -1.031215
125.100000 -1.031188 -1.031215
125.150000 -1.031184 -1.031215
125.200000 -1.031181 -1.031215
125.250000 -1.031179 -1.031215
125.300000 -1.031177 -1.031215
125.350000 -1.031177 -1.031215
125.400000 -1.031177 -1.031215
125.450000 -1.031179 -1.031215
125.500000 -1.031181 -1.031215
125.550000 -1.031184 -1.031215
125.600000 -1.031188 -1.031215
125.650000 -1.031193 -1.031215
125.700000 -1.031197 -1.031215
125.750000 -1.031203 -1.031215
125.800000 -1.031208 -1.031215
125.850000 -1.031214 -1.031215
125.900000 -1.031220 -1.031215
125.950000 -1.031225 -1.031215
126.000000 -1.031231 -1.031215
126.050000 -1.031235 -1.031215
126.100000 -1.031240 -1.031215
126.150000 -1.031243 -1.031215
126.200000 -1.031246 -1.031215
126.250000 -1.031249 -1.031215
126.300000 -1.031250 -1.031215
126.350000 -1.031251 -1.031215
126.400000 -1.031250 -1.031215
126.450000 -1.031249 -1.031215
126.500000 -1.031247 -1.031215
126.550000 -1.031245 -1.031215
126.600000 -1.031241 -1.031215
126.650000 -1.031237 -1.031215
126.700000 -1.031233 -1.031215
126.750000 -1.031228 -1.031215
126.800000 -1.031223 -1.031215
126.850000 -1.031218 -1.031215
126.900000 -1.031213 -1.031215
126.950000 -1.031208 -1.031215
127.000000 -1.031203 -1.031215
127.050000 -1.031198 -1.031215
127.100000 -1.031194 -1.031215
127.150000 -1.031191 -1.031215
127.200000 -1.031188 -1.031215
127.250000 -1.031185 -1.031215
127.300000 -1.031184 -1.031215
127.350000 -1.031183 -1.031215
127.400000 -1.031183 -1.031215
127.450000 -1.031184 -1.031215
127.500000 -1.031186 -1.031215
127.550000 -1.031188 -1.031215
127.600000 -1.031191 -1.031215
127.650000 -1.031194 -1.031215
127.700000 -1.031198 -1.031215
127.750000 -1.031203 -1.031215
127.800000 -1.031207 -1.031215
127.850000 -1.031212 -1.031215
127.900000 -1.031217 -1.031215
127.950000 -1.031221 -1.031215
128.000000 -1.031226 -1.031215
128.050000 -1.031230 -1.031215
128.100000 -1.031234 -1.031215
128.150000 -1.031237 -1.031215
128.200000 -1.031240 -1.031215
128.250000 -1.031242 -1.031215
128.300000 -1.031244 -1.031215
128.350000 -1.031245 -1.031215
128.400000 -1.031245 -1.031215
128.450000 -1.031244 -1.031215
128.500000 -1.031243 -1.031215
128.550000 -1.031241 -1.031215
128.600000 -1.031238 -1.031215
128.650000 -1.031235 -1.031215
128.700000 -1.031232 -1.031215
128.750000 -1.031228 -1.031215
128.800000 -1.031224 -1.031215
128.850000 -1.031220 -1.031215
128.900000 -1.031215 -1.031215
128.950000 -1.031211 -1.031215
129.000000 -1.031207 -1.031215
129.050000 -1.031203 -1.031215
129.100000 -1.031199 -1.031215
129.150000 -1.031196 -1.031215
129.200000 -1.031193 -1.031215
129.250000 -1.031191 -1.031215
129.300000 -1.031190 -1.031215
129.350000 -1.031189 -1.031215
129.400000 -1.031188 -1.031215
129.450000 -1.031189 -1.031215
129.500000 -1.031190 -1.031215
129.550000 -1.031192 -1.031215
129.600000 -1.031194 -1.031215
129.650000 -1.031196 -1.031215
129.700000 -1.031200 -1.031215
129.750000 -1.031203 -1.031215
129.800000 -1.031207 -1.031215
129.850000 -1.031211 -1.031215
129.900000 -1.031215 -1.031215
129.950000 -1.031219 -1.031215
130.000000 -1.031223 -1.031215
130.050000 -1.031226 -1.031215
130.100000 -1.031230 -1.031215
130.150000 -1.031233 -1.031215
130.200000 -1.031235 -1.031215
130.250000 -1.031237 -1.031215
130.300000 -1.031239 -1.031215
130.350000 -1.031240 -1.031215
130.400000 -1.031240 -1.031215
130.450000 -1.031240 -1.031215
130.500000 -1.031239 -1.031215
130.550000 -1.031238 -1.031215
130.600000 -1.031236 -1.031215
130.650000 -1.031233 -1.031215
130.700000 -1.031231 -1.031215
130.750000 -1.031228 -1.031215
130.800000 -1.031224 -1.031215
130.850000 -1.031221 -1.031215
130.900000 -1.031217 -1.031215
130.950000 -1.031213 -1.031215
131.000000 -1.031210 -1.031215
131.050000 -1.031206 -1.031215
131.100000 -1.031203 -1.031215
131.150000 -1.031200 -1.031215
131.200000 -1.031198 -1.031215
131.250000 -1.031196 -1.031215
131.300000 -1.031194 -1.031215
131.350000 -1.031193 -1.031215
131.400000 -1.031193 -1.031215
131.450000 -1.031193 -1.031215
131.500000 -1.031194 -1.031215
131.550000 -1.031195 -1.031215
131.600000 -1.031196 -1.031215
131.650000 -1.031198 -1.031215
131.700000 -1.031201 -1.031215
131.750000 -1.031204 -1.031215
131.800000 -1.031207 -1.031215
131.850000 -1.031210 -1.031215
131.900000 -1.031213 -1.031215
131.950000 -1.031217 -1.031215
132.000000 -1.031220 -1.031215
132.050000 -1.031223 -1.031215
132.100000 -1.031226 -1.031215
132.150000 -1.031229 -1.031215
132.200000 -1.031231 -1.031215
132.250000 -1.031233 -1.031215
132.300000 -1.031234 -1.031215
132.350000 -1.031235 -1.031215
132.400000 -1.031236 -1.031215
132.450000 -1.031236 -1.031215
132.500000 -1.031236 -1.031215
132.550000 -1.031235 -1.031215
132.600000 -1.031233 -1.031215
132.650000 -1.031231 -1.031215
132.700000 -1.031229 -1.031215
132.750000 -1.031227 -1.031215
132.800000 -1.031224 -1.031215
132.850000 -1.031221 -1.031215
132.900000 -1.031218 -1.031215
132.950000 -1.031215 -1.031215
133.000000 -1.031212 -1.031215
133.050000 -1.031209 -1.031215
133.100000 -1.031206 -1.031215
133.150000 -1.031204 -1.031215
133.200000 -1.031202 -1.031215
133.250000 -1.031200 -1.031215
133.300000 -1.031198 -1.031215
133.350000 -1.031197 -1.031215
133.400000 -1.031197 -1.031215
133.450000 -1.031197 -1.031215
133.500000 -1.031197 -1.031215
133.550000 -1.031198 -1.031215
133.600000 -1.031199 -1.031215
133.650000 -1.031200 -1.031215
133.700000 -1.031202 -1.031215
133.750000 -1.031204 -1.031215
133.800000 -1.031207 -1.031215
133.850000 -1.031210 -1.031215
133.900000 -1.031212 -1.031215
133.950000 -1.031215 -1.031215
134.000000 -1.031218 -1.031215
134.050000 -1.031221 -1.031215
134.100000 -1.031223 -1.031215
134.150000 -1.031225 -1.031215
134.200000 -1.031228 -1.031215
134.250000 -1.031229 -1.031215
134.300000 -1.031231 -1.031215
134.350000 -1.031232 -1.031215
134.400000 -1.031232 -1.031215
134.450000 -1.031233 -1.031215
134.500000 -1.031232 -1.031215
134.550000 -1.031232 -1.031215
134.600000 -1.031231 -1.031215
134.650000 -1.031230 -1.031215
134.700000 -1.031228 -1.031215
134.750000 -1.031226 -1.031215
134.800000 -1.031224 -1.031215
134.850000 -1.031221 -1.031215
134.900000 -1.031219 -1.031215
134.950000 -1.031216 -1.031215
135.000000 -1.031214 -1.031215
135.050000 -1.031211 -1.031215
135.100000 -1.031209 -1.031215
135.150000 -1.031207 -1.031215
135.200000 -1.031205 -1.031215
135.250000 -1.031203 -1.031215
135.300000 -1.031202 -1.031215
135.350000 -1.031201 -1.031215
135.400000 -1.031200 -1.031215
135.450000 -1.031200 -1.031215
135.500000 -1.031200 -1.031215
135.550000 -1.031200 -1.031215
135.600000 -1.031201 -1.031215
135.650000 -1.031202 -1.031215
135.700000 -1.031204 -1.031215
135.750000 -1.031205 -1.031215
135.800000 -1.031207 -1.031215
135.850000 -1.031209 -1.031215
135.900000 -1.031212 -1.031215
135.950000 -1.031214 -1.031215
136.000000 -1.031216 -1.031215
136.050000 -1.031219 -1.031215
136.100000 -1.031221 -1.031215
136.150000 -1.031223 -1.031215
136.200000 -1.031225 -1.031215
136.250000 -1.031226 -1.031215
136.300000 -1.031228 -1.031215
136.350000 -1.031229 -1.031215
136.400000 -1.031229 -1.031215
136.450000 -1.031230 -1.031215
136.500000 -1.031230 -1.031215
136.550000 -1.031229 -1.031215
136.600000 -1.031229 -1.031215
136.650000 -1.031228 -1.031215
136.700000 -1.031227 -1.031215
136.750000 -1.031225 -1.031215
136.800000 -1.031223 -1.031215
136.850000 -1.031221 -1.031215
136.900000 -1.031219 -1.031215
136.950000 -1.031217 -1.031215
137.000000 -1.031215 -1.031215
137.050000 -1.031213 -1.031215
137.100000 -1.031211 -1.031215
137.150000 -1.031209 -1.031215
137.200000 -1.031207 -1.031215
137.250000 -1.031206 -1.031215
137.300000 -1.031204 -1.031215
137.350000 -1.031203 -1.031215
137.400000 -1.031203 -1.031215
137.450000 -1.031202 -1.031215
137.500000 -1.031202 -1.031215
137.550000 -1.031202 -1.031215
137.600000 -1.031203 -1.031215
137.650000 -1.031204 -1.031215
137.700000 -1.031205 -1.031215
137.750000 -1.031206 -1.031215
137.800000 -1.031208 -1.031215
137.850000 -1.031210 -1.031215
137.900000 -1.031211 -1.031215
137.950000 -1.031213 -1.031215
138.000000 -1.031215 -1.031215
138.050000 -1.031217 -1.031215
138.100000 -1.031219 -1.031215
138.150000 -1.031221 -1.031215
138.200000 -1.031223 -1.031215
138.250000 -1.031224 -1.031215
138.300000 -1.031225 -1.031215
138.350000 -1.031226 -1.031215
138.400000 -1.031227 -1.031215
138.450000 -1.031227 -1.031215
138.500000 -1.031228 -1.031215
138.550000 -1.031227 -1.031215
138.600000 -1.031227 -1.031215
138.650000 -1.031226 -1.031215
138.700000 -1.031225 -1.031215
138.750000 -1.031224 -1.031215
138.800000 -1.031223 -1.031215
138.850000 -1.031221 -1.031215
138.900000 -1.031220 -1.031215
138.950000 -1.031218 -1.031215
139.000000 -1.031216 -1.031215
139.050000 -1.031214 -1.031215
139.100000 -1.031212 -1.031215
139.150000 -1.031211 -1.031215
139.200000 -1.031209 -1.031215
139.250000 -1.031208 -1.031215
139.300000 -1.031207 -1.031215
139.350000 -1.031206 -1.031215
139.400000 -1.031205 -1.031215
139.450000 -1.031205 -1.031215
139.500000 -1.031204 -1.031215
139.550000 -1.031204 -1.031215
139.600000 -1.031205 -1.031215
139.650000 -1.031205 -1.031215
139.700000 -1.031206 -1.031215
139.750000 -1.031207 -1.031215
139.800000 -1.031208 -1.031215
139.850000 -1.031210 -1.031215
139.900000 -1.031211 -1.031215
139.950000 -1.031213 -1.031215
140.000000 -1.031215 -1.031215
140.050000 -1.031216 -1.031215
140.100000 -1.031218 -1.031215
140.150000 -1.031219 -1.031215
140.200000 -1.031221 -1.031215
140.250000 -1.031222 -1.031215
140.300000 -1.031223 -1.031215
140.350000 -1.031224 -1.031215
140.400000 -1.031225 -1.031215
140.450000 -1.031225 -1.031215
140.500000 -1.031226 -1.031215
140.550000 -1.031225 -1.031215
140.600000 -1.031225 -1.031215
140.650000 -1.031225 -1.031215
140.700000 -1.031224 -1.031215
140.750000 -1.031223 -1.031215
140.800000 -1.031222 -1.031215
140.850000 -1.031221 -1.031215
140.900000 -1.031220 -1.031215
140.950000 -1.031218 -1.031215
141.000000 -1.031217 -1.031215
141.050000 -1.031215 -1.031215
141.100000 -1.031214 -1.031215
141.150000 -1.031212 -1.031215
141.200000 -1.031211 -1.031215
141.250000 -1.031210 -1.031215
141.300000 -1.031209 -1.031215
141.350000 -1.031208 -1.031215
141.400000 -1.031207 -1.031215
141.450000 -1.031206 -1.031215
141.500000 -1.031206 -1.031215
141.550000 -1.031206 -1.031215
141.600000 -1.031206 -1.031215
141.650000 -1.031207 -1.031215
141.700000 -1.031207 -1.031215
141.750000 -1.031208 -1.031215
141.800000 -1.031209 -1.031215
141.850000 -1.031210 -1.031215
141.900000 -1.031211 -1.031215
141.950000 -1.031213 -1.031215
142.000000 -1.031214 -1.031215
142.050000 -1.031215 -1.031215
142.100000 -1.031217 -1.031215
142.150000 -1.031218 -1.031215
142.200000 -1.031219 -1.031215
142.250000 -1.031220 -1.031215
142.300000 -1.031221 -1.031215
142.350000 -1.031222 -1.031215
142.400000 -1.031223 -1.031215
142.450000 -1.031223 -1.031215
142.500000 -1.031224 -1.031215
142.550000 -1.031224 -1.031215
142.600000 -1.031224 -1.031215
142.650000 -1.031223 -1.031215
142.700000 -1.031223 -1.031215
142.750000 -1.031222 -1.031215
142.800000 -1.031221 -1.031215
142.850000 -1.031220 -1.031215
142.900000 -1.031219 -1.031215
142.950000 -1.031218 -1.031215
143.000000 -1.031217 -1.031215
143.050000 -1.031216 -1.031215
143.100000 -1.031214 -1.031215
143.150000 -1.031213 -1.031215
143.200000 -1.031212 -1.031215
143.250000 -1.031211 -1.031215
143.300000 -1.031210 -1.031215
143.350000 -1.031209 -1.031215
143.400000 -1.031209 -1.031215
143.450000 -1.031208 -1.031215
143.500000 -1.031208 -1.031215
143.550000 -1.031208 -1.031215
143.600000 -1.031208 -1.031215
143.650000 -1.031208 -1.031215
143.700000 -1.031208 -1.031215
143.750000 -1.031209 -1.031215
143.800000 -1.031210 -1.031215
143.850000 -1.031211 -1.031215
143.900000 -1.031212 -1.031215
143.950000 -1.031213 -1.031215
144.000000 -1.031214 -1.031215
144.050000 -1.031215 -1.031215
144.100000 -1.031216 -1.031215
144.150000 -1.031217 -1.031215
144.200000 -1.031218 -1.031215
144.250000 -1.031219 -1.031215
144.300000 -1.031220 -1.031215
144.350000 -1.031221 -1.031215
144.400000 -1.031222 -1.031215
144.450000 -1.031222 -1.031215
144.500000 -1.031222 -1.031215
144.550000 -1.031222 -1.031215
144.600000 -1.031222 -1.031215
144.650000 -1.031222 -1.031215
144.700000 -1.031222 -1.031215
144.750000 -1.031221 -1.031215
144.800000 -1.031221 -1.031215
144.850000 -1.031220 -1.031215
144.900000 -1.031219 -1.031215
144.950000 -1.031218 -1.031215
145.000000 -1.031217 -1.031215
145.050000 -1.031216 -1.031215
145.100000 -1.031215 -1.031215
145.150000 -1.031214 -1.031215
145.200000 -1.031213 -1.031215
145.250000 -1.031212 -1.031215
145.300000 -1.031211 -1.031215
145.350000 -1.031211 -1.031215
145.400000 -1.031210 -1.031215
145.450000 -1.031209 -1.031215
145.500000 -1.031209 -1.031215
145.550000 -1.031209 -1.031215
145.600000 -1.031209 -1.031215
145.650000 -1.031209 -1.031215
145.700000 -1.031209 -1.031215
145.750000 -1.031210 -1.031215
145.800000 -1.031210 -1.031215
145.850000 -1.031211 -1.031215
145.900000 -1.031212 -1.031215
145.950000 -1.031213 -1.031215
146.000000 -1.031214 -1.031215
146.050000 -1.031214 -1.031215
146.100000 -1.031215 -1.031215
146.150000 -1.031216 -1.031215
146.200000 -1.031217 -1.031215
146.250000 -1.031218 -1.031215
146.300000 -1.031219 -1.031215
146.350000 -1.031220 -1.031215
146.400000 -1.031220 -1.031215
146.450000 -1.031221 -1.031215
146.500000 -1.031221 -1.031215
146.550000 -1.031221 -1.031215
146.600000 -1.031221 -1.031215
146.650000 -1.031221 -1.031215
146.700000 -1.031221 -1.031215
146.750000 -1.031221 -1.031215
146.800000 -1.031220 -1.031215
146.850000 -1.031220 -1.031215
146.900000 -1.031219 -1.031215
146.950000 -1.031218 -1.031215
147.000000 -1.031217 -1.031215
147.050000 -1.031216 -1.031215
147.100000 -1.031216 -1.031215
147.150000 -1.031215 -1.031215
147.200000 -1.031214 -1.031215
147.250000 -1.031213 -1.031215
147.300000 -1.031212 -1.031215
147.350000 -1.031212 -1.031215
147.400000 -1.031211 -1.031215
147.450000 -1.031211 -1.031215
147.500000 -1.031210 -1.031215
147.550000 -1.031210 -1.031215
147.600000 -1.031210 -1.031215
147.650000 -1.031210 -1.031215
147.700000 -1.031210 -1.031215
147.750000 -1.031211 -1.031215
147.800000 -1.031211 -1.031215
147.850000 -1.031211 -1.031215
147.900000 -1.031212 -1.031215
147.950000 -1.031213 -1.031215
148.000000 -1.031213 -1.031215
148.050000 -1.031214 -1.031215
148.100000 -1.031215 -1.031215
148.150000 -1.031216 -1.031215
148.200000 -1.031217 -1.031215
148.250000 -1.031217 -1.031215
148.300000 -1.031218 -1.031215
148.350000 -1.031219 -1.031215
148.400000 -1.031219 -1.031215
148.450000 -1.031220 -1.031215
148.500000 -1.031220 -1.031215
148.550000 -1.031220 -1.031215
148.600000 -1.031220 -1.031215
148.650000 -1.031220 -1.031215
148.700000 -1.031220 -1.031215
148.750000 -1.031220 -1.031215
148.800000 -1.031220 -1.031215
148.850000 -1.031219 -1.031215
148.900000 -1.031219 -1.031215
148.950000 -1.031218 -1.031215
149.000000 -1.031217 -1.031215
149.050000 -1.031217 -1.031215
149.100000 -1.031216 -1.031215
149.150000 -1.031215 -1.031215
149.200000 -1.031214 -1.031215
149.250000 -1.031214 -1.031215
149.300000 -1.031213 -1.031215
149.350000 -1.031213 -1.031215
149.400000 -1.031212 -1.031215
149.450000 -1.031212 -1.031215
149.500000 -1.031211 -1.031215
149.550000 -1.031211 -1.031215
149.600000 -1.031211 -1.031215
149.650000 -1.031211 -1.031215
149.700000 -1.031211 -1.031215
149.750000 -1.031211 -1.031215
149.800000 -1.031211 -1.031215
149.850000 -1.031212 -1.031215
149.900000 -1.031212 -1.031215
149.950000 -1.031213 -1.031215
150.000000 -1.031214 -1.031215
150.050000 -1.031214 -1.031215
150.100000 -1.031215 -1.031215
150.150000 -1.031215 -1.031215
150.200000 -1.031216 -1.031215
150.250000 -1.031217 -1.031215
150.300000 -1.031217 -1.031215
150.350000 -1.031218 -1.031215
150.400000 -1.031218 -1.031215
150.450000 -1.031219 -1.031215
150.500000 -1.031219 -1.031215
150.550000 -1.031219 -1.031215
150.600000 -1.031220 -1.031215
150.650000 -1.031220 -1.031215
150.700000 -1.031220 -1.031215
150.750000 -1.031219 -1.031215
150.800000 -1.031219 -1.031215
150.850000 -1.031219 -1.031215
150.900000 -1.031218 -1.031215
150.950000 -1.031218 -1.031215
151.000000 -1.031217 -1.031215
151.050000 -1.031217 -1.031215
151.100000 -1.031216 -1.031215
151.150000 -1.031216 -1.031215
151.200000 -1.031215 -1.031215
151.250000 -1.031214 -1.031215
151.300000 -1.031214 -1.031215
151.350000 -1.031213 -1.031215
151.400000 -1.031213 -1.031215
151.450000 -1.031212 -1.031215
151.500000 -1.031212 -1.031215
151.550000 -1.031212 -1.031215
151.600000 -1.031212 -1.031215
151.650000 -1.031212 -1.031215
151.700000 -1.031212 -1.031215
151.750000 -1.031212 -1.031215
151.800000 -1.031212 -1.031215
151.850000 -1.031212 -1.031215
151.900000 -1.031213 -1.031215
151.950000 -1.031213 -1.031215
152.000000 -1.031214 -1.031215
152.050000 -1.031214 -1.031215
152.100000 -1.031215 -1.031215
152.150000 -1.031215 -1.031215
152.200000 -1.031216 -1.031215
152.250000 -1.031216 -1.031215
152.300000 -1.031217 -1.031215
152.350000 -1.031217 -1.031215
152.400000 -1.031218 -1.031215
152.450000 -1.031218 -1.031215
152.500000 -1.031218 -1.031215
152.550000 -1.031219 -1.031215
152.600000 -1.031219 -1.031215
152.650000 -1.031219 -1.031215
152.700000 -1.031219 -1.031215
152.750000 -1.031219 -1.031215
152.800000 -1.031219 -1.031215
152.850000 -1.031218 -1.031215
152.900000 -1.031218 -1.031215
152.950000 -1.031218 -1.031215
153.000000 -1.031217 -1.031215
153.050000 -1.031217 -1.031215
153.100000 -1.031216 -1.031215
153.150000 -1.031216 -1.031215
153.200000 -1.031215 -1.031215
153.250000 -1.031215 -1.031215
153.300000 -1.031214 -1.031215
153.350000 -1.031214 -1.031215
153.400000 -1.031213 -1.031215
153.450000 -1.031213 -1.031215
153.500000 -1.031213 -1.031215
153.550000 -1.031212 -1.031215
153.600000 -1.031212 -1.031215
153.650000 -1.031212 -1.031215
153.700000 -1.031212 -1.031215
153.750000 -1.031212 -1.031215
153.800000 -1.031212 -1.031215
153.850000 -1.031213 -1.031215
153.900000 -1.031213 -1.031215
153.950000 -1.031213 -1.031215
154.000000 -1.031214 -1.031215
154.050000 -1.031214 -1.031215
154.100000 -1.031215 -1.031215
154.150000 -1.031215 -1.031215
154.200000 -1.031215 -1.031215
154.250000 -1.031216 -1.031215
154.300000 -1.031216 -1.031215
154.350000 -1.031217 -1.031215
154.400000 -1.031217 -1.031215
154.450000 -1.031218 -1.031215
154.500000 -1.031218 -1.031215
154.550000 -1.031218 -1.031215
154.600000 -1.031218 -1.031215
154.650000 -1.031218 -1.031215
154.700000 -1.031218 -1.031215
154.750000 -1.031218 -1.031215
154.800000 -1.031218 -1.031215
154.850000 -1.031218 -1.031215
154.900000 -1.031218 -1.031215
154.950000 -1.031217 -1.031215
155.000000 -1.031217 -1.031215
155.050000 -1.031217 -1.031215
155.100000 -1.031216 -1.031215
155.150000 -1.031216 -1.031215
155.200000 -1.031215 -1.031215
155.250000 -1.031215 -1.031215
155.300000 -1.031215 -1.031215
155.350000 -1.031214 -1.031215
155.400000 -1.031214 -1.031215
155.450000 -1.031214 -1.031215
155.500000 -1.031213 -1.031215
155.550000 -1.031213 -1.031215
155.600000 -1.031213 -1.031215
155.650000 -1.031213 -1.031215
155.700000 -1.031213 -1.031215
155.750000 -1.031213 -1.031215
155.800000 -1.031213 -1.031215
155.850000 -1.031213 -1.031215
155.900000 -1.031213 -1.031215
155.950000 -1.031214 -1.031215
156.000000 -1.031214 -1.031215
156.050000 -1.031214 -1.031215
156.100000 -1.031215 -1.031215
156.150000 -1.031215 -1.031215
156.200000 -1.031215 -1.031215
156.250000 -1.031216 -1.031215
156.300000 -1.031216 -1.031215
156.350000 -1.031216 -1.031215
156.400000 -1.031217 -1.031215
156.450000 -1.031217 -1.031215
156.500000 -1.031217 -1.031215
156.550000 -1.031218 -1.031215
156.600000 -1.031218 -1.031215
156.650000 -1.031218 -1.031215
156.700000 -1.031218 -1.031215
156.750000 -1.031218 -1.031215
156.800000 -1.031218 -1.031215
156.850000 -1.031218 -1.031215
156.900000 -1.031217 -1.031215
156.950000 -1.031217 -1.031215
157.000000 -1.031217 -1.031215
157.050000 -1.031217 -1.031215
157.100000 -1.031216 -1.031215
157.150000 -1.031216 -1.031215
157.200000 -1.031216 -1.031215
157.250000 -1.031215 -1.031215
157.300000 -1.031215 -1.031215
157.350000 -1.031215 -1.031215
157.400000 -1.031214 -1.031215
157.450000 -1.031214 -1.031215
157.500000 -1.031214 -1.031215
157.550000 -1.031214 -1.031215
157.600000 -1.031213 -1.031215
157.650000 -1.031213 -1.031215
157.700000 -1.031213 -1.031215
157.750000 -1.031213 -1.031215
157.800000 -1.031213 -1.031215
157.850000 -1.031213 -1.031215
157.900000 -1.031214 -1.031215
157.950000 -1.031214 -1.031215
158.000000 -1.031214 -1.031215
158.050000 -1.031214 -1.031215
158.100000 -1.031215 -1.031215
158.150000 -1.031215 -1.031215
158.200000 -1.031215 -1.031215
158.250000 -1.031215 -1.031215
158.300000 -1.031216 -1.031215
158.350000 -1.031216 -1.031215
158.400000 -1.031216 -1.031215
158.450000 -1.031217 -1.031215
158.500000 -1.031217 -1.031215
158.550000 -1.031217 -1.031215
158.600000 -1.031217 -1.031215
158.650000 -1.031217 -1.031215
158.700000 -1.031217 -1.031215
158.750000 -1.031217 -1.031215
158.800000 -1.031217 -1.031215
158.850000 -1.031217 -1.031215
158.900000 -1.031217 -1.031215
158.950000 -1.031217 -1.031215
159.000000 -1.031217 -1.031215
159.050000 -1.031217 -1.031215
159.100000 -1.031216 -1.031215
159.150000 -1.031216 -1.031215
159.200000 -1.031216 -1.031215
159.250000 -1.031215 -1.031215
159.300000 -1.031215 -1.031215
159.350000 -1.031215 -1.031215
159.400000 -1.031215 -1.031215
159.450000 -1.031214 -1.031215
159.500000 -1.031214 -1.031215
159.550000 -1.031214 -1.031215
159.600000 -1.031214 -1.031215
159.650000 -1.031214 -1.031215
159.700000 -1.031214 -1.031215
159.750000 -1.031214 -1.031215
159.800000 -1.031214 -1.031215
159.850000 -1.031214 -1.031215
159.900000 -1.031214 -1.031215
159.950000 -1.031214 -1.031215
160.000000 -1.031214 -1.031215
160.050000 -1.031214 -1.031215
160.100000 -1.031215 -1.031215
160.150000 -1.031215 -1.031215
160.200000 -1.031215 -1.031215
160.250000 -1.031215 -1.031215
160.300000 -1.031216 -1.031215
160.350000 -1.031216 -1.031215
160.400000 -1.031216 -1.031215
160.450000 -1.031216 -1.031215
160.500000 -1.031217 -1.031215
160.550000 -1.031217 -1.031215
160.600000 -1.031217 -1.031215
160.650000 -1.031217 -1.031215
160.700000 -1.031217 -1.031215
160.750000 -1.031217 -1.031215
160.800000 -1.031217 -1.031215
160.850000 -1.031217 -1.031215
160.900000 -1.031217 -1.031215
160.950000 -1.031217 -1.031215
161.000000 -1.031217 -1.031215
161.050000 -1.031216 -1.031215
161.100000 -1.031216 -1.031215
161.150000 -1.031216 -1.031215
161.200000 -1.031216 -1.031215
161.250000 -1.031216 -1.031215
161.300000 -1.031215 -1.031215
161.350000 -1.031215 -1.031215
161.400000 -1.031215 -1.031215
161.450000 -1.031215 -1.031215
161.500000 -1.031214 -1.031215
161.550000 -1.031214 -1.031215
161.600000 -1.031214 -1.031215
161.650000 -1.031214 -1.031215
161.700000 -1.031214 -1.031215
161.750000 -1.031214 -1.031215
161.800000 -1.031214 -1.031215
161.850000 -1.031214 -1.031215
161.900000 -1.031214 -1.031215
161.950000 -1.031214 -1.031215
162.000000 -1.031214 -1.031215
162.050000 -1.031214 -1.031215
162.100000 -1.031215 -1.031215
162.150000 -1.031215 -1.031215
162.200000 -1.031215 -1.031215
162.250000 -1.031215 -1.031215
162.300000 -1.031215 -1.031215
162.350000 -1.031216 -1.031215
162.400000 -1.031216 -1.031215
162.450000 -1.031216 -1.031215
162.500000 -1.031216 -1.031215
162.550000 -1.031216 -1.031215
162.600000 -1.031217 -1.031215
162.650000 -1.031217 -1.031215
162.700000 -1.031217 -1.031215
162.750000 -1.031217 -1.031215
162.800000 -1.031217 -1.031215
162.850000 -1.031217 -1.031215
162.900000 -1.031217 -1.031215
162.950000 -1.031217 -1.031215
163.000000 -1.031217 -1.031215
163.050000 -1.031216 -1.031215
163.100000 -1.031216 -1.031215
163.150000 -1.031216 -1.031215
163.200000 -1.031216 -1.031215
163.250000 -1.031216 -1.031215
163.300000 -1.031215 -1.031215
163.350000 -1.031215 -1.031215
163.400000 -1.031215 -1.031215
163.450000 -1.031215 -1.031215
163.500000 -1.031215 -1.031215
163.550000 -1.031214 -1.031215
163.600000 -1.031214 -1.031215
163.650000 -1.031214 -1.031215
163.700000 -1.031214 -1.031215
163.750000 -1.031214 -1.031215
163.800000 -1.031214 -1.031215
163.850000 -1.031214 -1.031215
163.900000 -1.031214 -1.031215
163.950000 -1.031214 -1.031215
164.000000 -1.031214 -1.031215
164.050000 -1.031214 -1.031215
164.100000 -1.031215 -1.031215
164.150000 -1.031215 -1.031215
164.200000 -1.031215 -1.031215
164.250000 -1.031215 -1.031215
164.300000 -1.031215 -1.031215
164.350000 -1.031216 -1.031215
164.400000 -1.031216 -1.031215
164.450000 -1.031216 -1.031215
164.500000 -1.031216 -1.031215
164.550000 -1.031216 -1.031215
164.600000 -1.031216 -1.031215
164.650000 -1.031216 -1.031215
164.700000 -1.031217 -1.031215
164.750000 -1.031217 -1.031215
164.800000 -1.031217 -1.031215
164.850000 -1.031217 -1.031215
164.900000 -1.031217 -1.031215
164.950000 -1.031216 -1.031215
165.000000 -1.031216 -1.031215
165.050000 -1.031216 -1.031215
165.100000 -1.031216 -1.031215
165.150000 -1.031216 -1.031215
165.200000 -1.031216 -1.031215
165.250000 -1.031216 -1.031215
165.300000 -1.031215 -1.031215
165.350000 -1.031215 -1.031215
165.400000 -1.031215 -1.031215
165.450000 -1.031215 -1.031215
165.500000 -1.031215 -1.031215
165.550000 -1.031215 -1.031215
165.600000 -1.031215 -1.031215
165.650000 -1.031214 -1.031215
165.700000 -1.031214 -1.031215
165.750000 -1.031214 -1.031215
165.800000 -1.031214 -1.031215
165.850000 -1.031214 -1.031215
165.900000 -1.031214 -1.031215
165.950000 -1.031214 -1.031215
166.000000 -1.031214 -1.031215
166.050000 -1.031215 -1.031215
166.100000 -1.031215 -1.031215
166.150000 -1.031215 -1.031215
166.200000 -1.031215 -1.031215
166.250000 -1.031215 -1.031215
166.300000 -1.031215 -1.031215
166.350000 -1.031215 -1.031215
166.400000 -1.031216 -1.031215
166.450000 -1.031216 -1.031215
166.500000 -1.031216 -1.031215
166.550000 -1.031216 -1.031215
166.600000 -1.031216 -1.031215
166.650000 -1.031216 -1.031215
166.700000 -1.031216 -1.031215
166.750000 -1.031216 -1.031215
166.800000 -1.031216 -1.031215
166.850000 -1.031216 -1.031215
166.900000 -1.031216 -1.031215
166.950000 -1.031216 -1.031215
167.000000 -1.031216 -1.031215
167.050000 -1.031216 -1.031215
167.100000 -1.031216 -1.031215
167.150000 -1.031216 -1.031215
167.200000 -1.031216 -1.031215
167.250000 -1.031216 -1.031215
167.300000 -1.031216 -1.031215
167.350000 -1.031215 -1.031215
167.400000 -1.031215 -1.031215
167.450000 -1.031215 -1.031215
167.500000 -1.031215 -1.031215
167.550000 -1.031215 -1.031215
167.600000 -1.031215 -1.031215
167.650000 -1.031215 -1.031215
167.700000 -1.031215 -1.031215
167.750000 -1.031215 -1.031215
167.800000 -1.031215 -1.031215
167.850000 -1.031215 -1.031215
167.900000 -1.031215 -1.031215
167.950000 -1.031215 -1.031215
168.000000 -1.031215 -1.031215
168.050000 -1.031215 -1.031215
168.100000 -1.031215 -1.031215
168.150000 -1.031215 -1.031215
168.200000 -1.031215 -1.031215
168.250000 -1.031215 -1.031215
168.300000 -1.031215 -1.031215
168.350000 -1.031215 -1.031215
168.400000 -1.031216 -1.031215
168.450000 -1.031216 -1.031215
168.500000 -1.031216 -1.031215
168.550000 -1.031216 -1.031215
168.600000 -1.031216 -1.031215
168.650000 -1.031216 -1.031215
168.700000 -1.031216 -1.031215
168.750000 -1.031216 -1.031215
168.800000 -1.031216 -1.031215
168.850000 -1.031216 -1.031215
168.900000 -1.031216 -1.031215
168.950000 -1.031216 -1.031215
169.000000 -1.031216 -1.031215
169.050000 -1.031216 -1.031215
169.100000 -1.031216 -1.031215
169.150000 -1.031216 -1.031215
169.200000 -1.031216 -1.031215
169.250000 -1.031216 -1.031215
169.300000 -1.031216 -1.031215
169.350000 -1.031215 -1.031215
169.400000 -1.031215 -1.031215
169.450000 -1.031215 -1.031215
169.500000 -1.031215 -1.031215
169.550000 -1.031215 -1.031215
169.600000 -1.031215 -1.031215
169.650000 -1.031215 -1.031215
169.700000 -1.031215 -1.031215
169.750000 -1.031215 -1.031215
169.800000 -1.031215 -1.031215
169.850000 -1.031215 -1.031215
169.900000 -1.031215 -1.031215
169.950000 -1.031215 -1.031215
170.000000 -1.031215 -1.031215
170.050000 -1.031215 -1.031215
170.100000 -1.031215 -1.031215
170.150000 -1.031215 -1.031215
170.200000 -1.031215 -1.031215
170.250000 -1.031215 -1.031215
170.300000 -1.031215 -1.031215
170.350000 -1.031215 -1.031215
170.400000 -1.031215 -1.031215
170.450000 -1.031216 -1.031215
170.500000 -1.031216 -1.031215
170.550000 -1.031216 -1.031215
170.600000 -1.031216 -1.031215
170.650000 -1.031216 -1.031215
170.700000 -1.031216 -1.031215
170.750000 -1.031216 -1.031215
170.800000 -1.031216 -1.031215
170.850000 -1.031216 -1.031215
170.900000 -1.031216 -1.031215
170.950000 -1.031216 -1.031215
171.000000 -1.031216 -1.031215
171.050000 -1.031216 -1.031215
171.100000 -1.031216 -1.031215
171.150000 -1.031216 -1.031215
171.200000 -1.031216 -1.031215
171.250000 -1.031216 -1.031215
171.300000 -1.031216 -1.031215
171.350000 -1.031216 -1.031215
171.400000 -1.031215 -1.031215
171.450000 -1.031215 -1.031215
171.500000 -1.031215 -1.031215
171.550000 -1.031215 -1.031215
171.600000 -1.031215 -1.031215
171.650000 -1.031215 -1.031215
171.700000 -1.031215 -1.031215
171.750000 -1.031215 -1.031215
171.800000 -1.031215 -1.031215
171.850000 -1.031215 -1.031215
171.900000 -1.031215 -1.031215
171.950000 -1.031215 -1.031215
172.000000 -1.031215 -1.031215
172.050000 -1.031215 -1.031215
172.100000 -1.031215 -1.031215
172.150000 -1.031215 -1.031215
172.200000 -1.031215 -1.031215
172.250000 -1.031215 -1.031215
172.300000 -1.031215 -1.031215
172.350000 -1.031215 -1.031215
172.400000 -1.031215 -1.031215
172.450000 -1.031216 -1.031215
172.500000 -1.031216 -1.031215
172.550000 -1.031216 -1.031215
172.600000 -1.031216 -1.031215
172.650000 -1.031216 -1.031215
172.700000 -1.031216 -1.031215
172.750000 -1.031216 -1.031215
172.800000 -1.031216 -1.031215
172.850000 -1.031216 -1.031215
172.900000 -1.031216 -1.031215
172.950000 -1.031216 -1.031215
173.000000 -1.031216 -1.031215
173.050000 -1.031216 -1.031215
173.100000 -1.031216 -1.031215
173.150000 -1.031216 -1.031215
173.200000 -1.031216 -1.031215
173.250000 -1.031216 -1.031215
173.300000 -1.031216 -1.031215
173.350000 -1.031216 -1.031215
173.400000 -1.031215 -1.031215
173.450000 -1.031215 -1.031215
173.500000 -1.031215 -1.031215
173.550000 -1.031215 -1.031215
173.600000 -1.031215 -1.031215
173.650000 -1.031215 -1.031215
173.700000 -1.031215 -1.031215
173.750000 -1.031215 -1.031215
173.800000 -1.031215 -1.031215
173.850000 -1.031215 -1.031215
173.900000 -1.031215 -1.031215
173.950000 -1.031215 -1.031215
174.000000 -1.031215 -1.031215
174.050000 -1.031215 -1.031215
174.100000 -1.031215 -1.031215
174.150000 -1.031215 -1.031215
174.200000 -1.031215 -1.031215
174.250000 -1.031215 -1.031215
174.300000 -1.031215 -1.031215
174.350000 -1.031215 -1.031215
174.400000 -1.031215 -1.031215
174.450000 -1.031215 -1.031215
174.500000 -1.031216 -1.031215
174.550000 -1.031216 -1.031215
174.600000 -1.031216 -1.031215
174.650000 -1.031216 -1.031215
174.700000 -1.031216 -1.031215
174.750000 -1.031216 -1.031215
174.800000 -1.031216 -1.031215
174.850000 -1.031216 -1.031215
174.900000 -1.031216 -1.031215
174.950000 -1.031216 -1.031215
175.000000 -1.031216 -1.031215
175.050000 -1.031216 -1.031215
175.100000 -1.031216 -1.031215
175.150000 -1.031216 -1.031215
175.200000 -1.031216 -1.031215
175.250000 -1.031216 -1.031215
175.300000 -1.031216 -1.031215
175.350000 -1.031216 -1.031215
175.400000 -1.031215 -1.031215
175.450000 -1.031215 -1.031215
175.500000 -1.031215 -1.031215
175.550000 -1.031215 -1.031215
175.600000 -1.031215 -1.031215
175.650000 -1.031215 -1.031215
175.700000 -1.031215 -1.031215
175.750000 -1.031215 -1.031215
175.800000 -1.031215 -1.031215
175.850000 -1.031215 -1.031215
175.900000 -1.031215 -1.031215
175.950000 -1.031215 -1.031215
176.000000 -1.031215 -1.031215
176.050000 -1.031215 -1.031215
176.100000 -1.031215 -1.031215
176.150000 -1.031215 -1.031215
176.200000 -1.031215 -1.031215
176.250000 -1.031215 -1.031215
176.300000 -1.031215 -1.031215
176.350000 -1.031215 -1.031215
176.400000 -1.031215 -1.031215
176.450000 -1.031215 -1.031215
176.500000 -1.031215 -1.031215
176.550000 -1.031216 -1.031215
176.600000 -1.031216 -1.031215
176.650000 -1.031216 -1.031215
176.700000 -1.031216 -1.031215
176.750000 -1.031216 -1.031215
176.800000 -1.031216 -1.031215
176.850000 -1.031216 -1.031215
176.900000 -1.031216 -1.031215
176.950000 -1.031216 -1.031215
177.000000 -1.031216 -1.031215
177.050000 -1.031216 -1.031215
177.100000 -1.031216 -1.031215
177.150000 -1.031216 -1.031215
177.200000 -1.031216 -1.031215
177.250000 -1.031216 -1.031215
177.300000 -1.031216 -1.031215
177.350000 -1.031216 -1.031215
177.400000 -1.031215 -1.031215
177.450000 -1.031215 -1.031215
177.500000 -1.031215 -1.031215
177.550000 -1.031215 -1.031215
177.600000 -1.031215 -1.031215
177.650000 -1.031215 -1.031215
177.700000 -1.031215 -1.031215
177.750000 -1.031215 -1.031215
177.800000 -1.031215 -1.031215
177.850000 -1.031215 -1.031215
177.900000 -1.031215 -1.031215
177.950000 -1.031215 -1.031215
178.000000 -1.031215 -1.031215
178.050000 -1.031215 -1.031215
178.100000 -1.031215 -1.031215
178.150000 -1.031215 -1.031215
178.200000 -1.031215 -1.031215
178.250000 -1.031215 -1.031215
178.300000 -1.031215 -1.031215
178.350000 -1.031215 -1.031215
178.400000 -1.031215 -1.031215
178.450000 -1.031215 -1.031215
178.500000 -1.031215 -1.031215
178.550000 -1.031215 -1.031215
178.600000 -1.031216 -1.031215
178.650000 -1.031216 -1.031215
178.700000 -1.031216 -1.031215
178.750000 -1.031216 -1.031215
178.800000 -1.031216 -1.031215
178.850000 -1.031216 -1.031215
178.900000 -1.031216 -1.031215
178.950000 -1.031216 -1.031215
179.000000 -1.031216 -1.031215
179.050000 -1.031216 -1.031215
179.100000 -1.031216 -1.031215
179.150000 -1.031216 -1.031215
179.200000 -1.031216 -1.031215
179.250000 -1.031216 -1.031215
179.300000 -1.031216 -1.031215
179.350000 -1.031216 -1.031215
179.400000 -1.031216 -1.031215
179.450000 -1.031215 -1.031215
179.500000 -1.031215 -1.031215
179.550000 -1.031215 -1.031215
179.600000 -1.031215 -1.031215
179.650000 -1.031215 -1.031215
179.700000 -1.031215 -1.031215
179.750000 -1.031215 -1.031215
179.800000 -1.031215 -1.031215
179.850000 -1.031215 -1.031215
179.900000 -1.031215 -1.031215
179.950000 -1.031215 -1.031215
180.000000 -1.031215 -1.031215
180.050000 -1.031215 -1.031215
180.100000 -1.031215 -1.031215
180.150000 -1.031215 -1.031215
180.200000 -1.031215 -1.031215
180.250000 -1.031215 -1.031215
180.300000 -1.031215 -1.031215
180.350000 -1.031215 -1.031215
180.400000 -1.031215 -1.031215
180.450000 -1.031215 -1.031215
180.500000 -1.031215 -1.031215
180.550000 -1.031215 -1.031215
180.600000 -1.031216 -1.031215
180.650000 -1.031216 -1.031215
180.700000 -1.031216 -1.031215
180.750000 -1.031216 -1.031215
180.800000 -1.031216 -1.031215
180.850000 -1.031216 -1.031215
180.900000 -1.031216 -1.031215
180.950000 -1.031216 -1.031215
181.000000 -1.031216 -1.031215
181.050000 -1.031216 -1.031215
181.100000 -1.031216 -1.031215
181.150000 -1.031216 -1.031215
181.200000 -1.031216 -1.031215
181.250000 -1.031216 -1.031215
181.300000 -1.031216 -1.031215
181.350000 -1.031216 -1.031215
181.400000 -1.031216 -1.031215
181.450000 -1.031215 -1.031215
181.500000 -1.031215 -1.031215
181.550000 -1.031215 -1.031215
181.600000 -1.031215 -1.031215
181.650000 -1.031215 -1.031215
181.700000 -1.031215 -1.031215
181.750000 -1.031215 -1.031215
181.800000 -1.031215 -1.031215
181.850000 -1.031215 -1.031215
181.900000 -1.031215 -1.031215
181.950000 -1.031215 -1.031215
182.000000 -1.031215 -1.031215
182.050000 -1.031215 -1.031215
182.100000 -1.031215 -1.031215
182.150000 -1.031215 -1.031215
182.200000 -1.031215 -1.031215
182.250000 -1.031215 -1.031215
182.300000 -1.031215 -1.031215
182.350000 -1.031215 -1.031215
182.400000 -1.031215 -1.031215
182.450000 -1.031215 -1.031215
182.500000 -1.031215 -1.031215
182.550000 -1.031215 -1.031215
182.600000 -1.031215 -1.031215
182.650000 -1.031216 -1.031215
182.700000 -1.031216 -1.031215
182.750000 -1.031216 -1.031215
182.800000 -1.031216 -1.031215
182.850000 -1.031216 -1.031215
182.900000 -1.031216 -1.031215
182.950000 -1.031216 -1.031215
183.000000 -1.031216 -1.031215
183.050000 -1.031216 -1.031215
183.100000 -1.031216 -1.031215
183.150000 -1.031216 -1.031215
183.200000 -1.031216 -1.031215
183.250000 -1.031216 -1.031215
183.300000 -1.031216 -1.031215
183.350000 -1.031216 -1.031215
183.400000 -1.031216 -1.031215
183.450000 -1.031215 -1.031215
183.500000 -1.031215 -1.031215
183.550000 -1.031215 -1.031215
183.600000 -1.031215 -1.031215
183.650000 -1.031215 -1.031215
183.700000 -1.031215 -1.031215
183.750000 -1.031215 -1.031215
183.800000 -1.031215 -1.031215
183.850000 -1.031215 -1.031215
183.900000 -1.031215 -1.031215
183.950000 -1.031215 -1.031215
184.000000 -1.031215 -1.031215
184.050000 -1.031215 -1.031215
184.100000 -1.031215 -1.031215
184.150000 -1.031215 -1.031215
184.200000 -1.031215 -1.031215
184.250000 -1.031215 -1.031215
184.300000 -1.031215 -1.031215
184.350000 -1.031215 -1.031215
184.400000 -1.031215 -1.031215
184.450000 -1.031215 -1.031215
184.500000 -1.031215 -1.031215
184.550000 -1.031215 -1.031215
184.600000 -1.031215 -1.031215
184.650000 -1.031215 -1.031215
184.700000 -1.031216 -1.031215
184.750000 -1.031216 -1.031215
184.800000 -1.031216 -1.031215
184.850000 -1.031216 -1.031215
184.900000 -1.031216 -1.031215
184.950000 -1.031216 -1.031215
185.000000 -1.031216 -1.031215
185.050000 -1.031216 -1.031215
185.100000 -1.031216 -1.031215
185.150000 -1.031216 -1.031215
185.200000 -1.031216 -1.031215
185.250000 -1.031216 -1.031215
185.300000 -1.031216 -1.031215
185.350000 -1.031216 -1.031215
185.400000 -1.031216 -1.031215
185.450000 -1.031215 -1.031215
185.500000 -1.031215 -1.031215
185.550000 -1.031215 -1.031215
185.600000 -1.031215 -1.031215
185.650000 -1.031215 -1.031215
185.700000 -1.031215 -1.031215
185.750000 -1.031215 -1.031215
185.800000 -1.031215 -1.031215
185.850000 -1.031215 -1.031215
185.900000 -1.031215 -1.031215
185.950000 -1.031215 -1.031215
186.000000 -1.031215 -1.031215
186.050000 -1.031215 -1.031215
186.100000 -1.031215 -1.031215
186.150000 -1.031215 -1.031215
186.200000 -1.031215 -1.031215
186.250000 -1.031215 -1.031215
186.300000 -1.031215 -1.031215
186.350000 -1.031215 -1.031215
186.400000 -1.031215 -1.031215
186.450000 -1.031215 -1.031215
186.500000 -1.031215 -1.031215
186.550000 -1.031215 -1.031215
186.600000 -1.031215 -1.031215
186.650000 -1.031215 -1.031215
186.700000 -1.031215 -1.031215
186.750000 -1.031216 -1.031215
186.800000 -1.031216 -1.031215
186.850000 -1.031216 -1.031215
186.900000 -1.031216 -1.031215
