fit_time[ns] Functional_fit[mV] Thermal_fit[mV]
3.650000 42.122082 38.270450
3.700000 42.687310 37.589295
3.750000 43.107524 36.920134
3.800000 43.357283 36.262741
3.850000 43.416382 35.616894
3.900000 43.270270 34.982377
3.950000 42.910306 34.358976
4.000000 42.333867 33.746484
4.050000 41.544291 33.144697
4.100000 40.550664 32.553415
4.150000 39.367470 31.972443
4.200000 38.014102 31.401590
4.250000 36.514254 30.840666
4.300000 34.895220 30.289489
4.350000 33.187105 29.747879
4.400000 31.421985 29.215659
4.450000 29.633031 28.692655
4.500000 27.853617 28.178700
4.550000 26.116450 27.673625
4.600000 24.452724 27.177270
4.650000 22.891338 26.689474
4.700000 21.458184 26.210080
4.750000 20.175533 25.738936
4.800000 19.061519 25.275892
4.850000 18.129749 24.820799
4.900000 17.389031 24.373515
4.950000 16.843242 23.933896
5.000000 16.491312 23.501805
5.050000 16.327355 23.077106
5.100000 16.340906 22.659665
5.150000 16.517283 22.249351
5.200000 16.838048 21.846036
5.250000 17.281555 21.449595
5.300000 17.823574 21.059903
5.350000 18.437968 20.676841
5.400000 19.097406 20.300289
5.450000 19.774094 19.930132
5.500000 20.440504 19.566254
5.550000 21.070078 19.208544
5.600000 21.637899 18.856893
5.650000 22.121306 18.511193
5.700000 22.500426 18.171337
5.750000 22.758645 17.837223
5.800000 22.882963 17.508749
5.850000 22.864262 17.185814
5.900000 22.697464 16.868322
5.950000 22.381583 16.556176
6.000000 21.919660 16.249282
6.050000 21.318612 15.947547
6.100000 20.588966 15.650881
6.150000 19.744514 15.359195
6.200000 18.801893 15.072401
6.250000 17.780085 14.790414
6.300000 16.699885 14.513150
6.350000 15.583316 14.240526
6.400000 14.453033 13.972460
6.450000 13.331720 13.708875
6.500000 12.241499 13.449690
6.550000 11.203359 13.194831
6.600000 10.236639 12.944221
6.650000 9.358548 12.697787
6.700000 8.583765 12.455457
6.750000 7.924100 12.217158
6.800000 7.388245 11.982823
6.850000 6.981606 11.752381
6.900000 6.706225 11.525766
6.950000 6.560795 11.302911
7.000000 6.540755 11.083752
7.050000 6.638471 10.868225
7.100000 6.843493 10.656268
7.150000 7.142882 10.447819
7.200000 7.521595 10.242818
7.250000 7.962911 10.041205
7.300000 8.448899 9.842923
7.350000 8.960908 9.647915
7.400000 9.480065 9.456124
7.450000 9.987763 9.267495
7.500000 10.466142 9.081975
7.550000 10.898538 8.899511
7.600000 11.269888 8.720049
7.650000 11.567089 8.543540
7.700000 11.779301 8.369933
7.750000 11.898180 8.199177
7.800000 11.918046 8.031226
7.850000 11.835975 7.866031
7.900000 11.651823 7.703546
7.950000 11.368169 7.543724
8.000000 10.990199 7.386521
8.050000 10.525513 7.231892
8.100000 9.983882 7.079793
8.150000 9.376950 6.930183
8.200000 8.717892 6.783018
8.250000 8.021043 6.638257
8.300000 7.301499 6.495861
8.350000 6.574710 6.355789
8.400000 5.856071 6.218001
8.450000 5.160520 6.082460
8.500000 4.502160 5.949128
8.550000 3.893909 5.817968
8.600000 3.347181 5.688943
8.650000 2.871625 5.562017
8.700000 2.474906 5.437156
8.750000 2.162539 5.314324
8.800000 1.937796 5.193487
8.850000 1.801656 5.074613
8.900000 1.752829 4.957669
8.950000 1.787832 4.842621
9.000000 1.901122 4.729439
9.050000 2.085276 4.618092
9.100000 2.331228 4.508548
9.150000 2.628529 4.400778
9.200000 2.965648 4.294753
9.250000 3.330291 4.190442
9.300000 3.709737 4.087819
9.350000 4.091173 3.986854
9.400000 4.462030 3.887520
9.450000 4.810305 3.789790
9.500000 5.124859 3.693638
9.550000 5.395688 3.599036
9.600000 5.614163 3.505961
9.650000 5.773225 3.414386
9.700000 5.867535 3.324286
9.750000 5.893582 3.235638
9.800000 5.849734 3.148416
9.850000 5.736245 3.062598
9.900000 5.555209 2.978161
9.950000 5.310472 2.895081
10.000000 5.007493 2.813336
10.050000 4.653170 2.732905
10.100000 4.255636 2.653765
10.150000 3.824020 2.575896
10.200000 3.368187 2.499276
10.250000 2.898473 2.423885
10.300000 2.425401 2.349703
10.350000 1.959405 2.276710
10.400000 1.510562 2.204886
10.450000 1.088334 2.134212
10.500000 0.701335 2.064669
10.550000 0.357125 1.996240
10.600000 0.062031 1.928905
10.650000 -0.178994 1.862646
10.700000 -0.362468 1.797447
10.750000 -0.486450 1.733289
10.800000 -0.550551 1.670156
10.850000 -0.555923 1.608031
10.900000 -0.505193 1.546897
10.950000 -0.402369 1.486739
11.000000 -0.252709 1.427540
11.050000 -0.062559 1.369285
11.100000 0.160833 1.311958
11.150000 0.409521 1.255544
11.200000 0.675083 1.200029
11.250000 0.948847 1.145398
11.300000 1.222121 1.091636
11.350000 1.486419 1.038729
11.400000 1.733681 0.986664
11.450000 1.956466 0.935426
11.500000 2.148138 0.885003
11.550000 2.303024 0.835381
11.600000 2.416536 0.786547
11.650000 2.485273 0.738488
11.700000 2.507085 0.691192
11.750000 2.481102 0.644646
11.800000 2.407735 0.598838
11.850000 2.288635 0.553757
11.900000 2.126628 0.509390
11.950000 1.925618 0.465727
12.000000 1.690465 0.422755
12.050000 1.426837 0.380463
12.100000 1.141047 0.338841
12.150000 0.839880 0.297877
12.200000 0.530401 0.257562
12.250000 0.219771 0.217884
12.300000 -0.084946 0.178834
12.350000 -0.376961 0.140400
12.400000 -0.649932 0.102574
12.450000 -0.898122 0.065346
12.500000 -1.116536 0.028705
12.550000 -1.301034 -0.007357
12.600000 -1.448426 -0.042851
12.650000 -1.556533 -0.077784
12.700000 -1.624224 -0.112166
12.750000 -1.651427 -0.146006
12.800000 -1.639112 -0.179313
12.850000 -1.589239 -0.212095
12.900000 -1.504693 -0.244360
12.950000 -1.389192 -0.276117
13.000000 -1.247168 -0.307374
13.050000 -1.083644 -0.338140
13.100000 -0.904092 -0.368421
13.150000 -0.714275 -0.398225
13.200000 -0.520103 -0.427561
13.250000 -0.327466 -0.456436
13.300000 -0.142087 -0.484857
13.350000 0.030621 -0.512831
13.400000 0.185696 -0.540366
13.450000 0.318743 -0.567468
13.500000 0.426034 -0.594145
13.550000 0.504598 -0.620403
13.600000 0.552278 -0.646249
13.650000 0.567773 -0.671689
13.700000 0.550655 -0.696731
13.750000 0.501363 -0.721379
13.800000 0.421170 -0.745642
13.850000 0.312141 -0.769524
13.900000 0.177057 -0.793032
13.950000 0.019331 -0.816171
14.000000 -0.157091 -0.838948
14.050000 -0.347849 -0.861369
14.100000 -0.548284 -0.883439
14.150000 -0.753570 -0.905163
14.200000 -0.958841 -0.926547
14.250000 -1.159318 -0.947597
14.300000 -1.350431 -0.968318
14.350000 -1.527936 -0.988715
14.400000 -1.688017 -1.008793
14.450000 -1.827379 -1.028557
14.500000 -1.943321 -1.048013
14.550000 -2.033796 -1.067165
14.600000 -2.097451 -1.086017
14.650000 -2.133648 -1.104576
14.700000 -2.142469 -1.122844
14.750000 -2.124697 -1.140828
14.800000 -2.081784 -1.158531
14.850000 -2.015799 -1.175958
14.900000 -1.929362 -1.193113
14.950000 -1.825568 -1.210001
15.000000 -1.707891 -1.226626
15.050000 -1.580095 -1.242992
15.100000 -1.446124 -1.259102
15.150000 -1.309997 -1.274962
15.200000 -1.175706 -1.290575
15.250000 -1.047108 -1.305944
15.300000 -0.927831 -1.321075
15.350000 -0.821184 -1.335970
15.400000 -0.730074 -1.350633
15.450000 -0.656943 -1.365068
15.500000 -0.603712 -1.379279
15.550000 -0.571740 -1.393269
15.600000 -0.561802 -1.407041
15.650000 -0.574080 -1.420600
15.700000 -0.608168 -1.433947
15.750000 -0.663097 -1.447088
15.800000 -0.737370 -1.460024
15.850000 -0.829012 -1.472759
15.900000 -0.935629 -1.485297
15.950000 -1.054482 -1.497640
16.000000 -1.182561 -1.509791
16.050000 -1.316671 -1.521754
16.100000 -1.453519 -1.533532
16.150000 -1.589801 -1.545126
16.200000 -1.722287 -1.556541
16.250000 -1.847906 -1.567779
16.300000 -1.963819 -1.578843
16.350000 -2.067493 -1.589736
16.400000 -2.156758 -1.600459
16.450000 -2.229855 -1.611017
16.500000 -2.285477 -1.621411
16.550000 -2.322793 -1.631644
16.600000 -2.341459 -1.641719
16.650000 -2.341617 -1.651637
16.700000 -2.323886 -1.661403
16.750000 -2.289331 -1.671017
16.800000 -2.239431 -1.680482
16.850000 -2.176031 -1.689801
16.900000 -2.101283 -1.698976
16.950000 -2.017593 -1.708009
17.000000 -1.927545 -1.716903
17.050000 -1.833835 -1.725659
17.100000 -1.739196 -1.734280
17.150000 -1.646330 -1.742767
17.200000 -1.557834 -1.751124
17.250000 -1.476138 -1.759351
17.300000 -1.403445 -1.767452
17.350000 -1.341676 -1.775427
17.400000 -1.292428 -1.783279
17.450000 -1.256937 -1.791010
17.500000 -1.236056 -1.798622
17.550000 -1.230235 -1.806117
17.600000 -1.239525 -1.813495
17.650000 -1.263577 -1.820760
17.700000 -1.301665 -1.827913
17.750000 -1.352707 -1.834956
17.800000 -1.415305 -1.841890
17.850000 -1.487784 -1.848718
17.900000 -1.568243 -1.855440
17.950000 -1.654610 -1.862059
18.000000 -1.744695 -1.868575
18.050000 -1.836252 -1.874992
18.100000 -1.927041 -1.881309
18.150000 -2.014881 -1.887529
18.200000 -2.097710 -1.893654
18.250000 -2.173631 -1.899684
18.300000 -2.240965 -1.905622
18.350000 -2.298285 -1.911468
18.400000 -2.344451 -1.917224
18.450000 -2.378632 -1.922892
18.500000 -2.400322 -1.928472
18.550000 -2.409349 -1.933967
18.600000 -2.405869 -1.939378
18.650000 -2.390361 -1.944705
18.700000 -2.363600 -1.949950
18.750000 -2.326642 -1.955115
18.800000 -2.280779 -1.960200
18.850000 -2.227512 -1.965208
18.900000 -2.168500 -1.970138
18.950000 -2.105517 -1.974993
19.000000 -2.040404 -1.979773
19.050000 -1.975018 -1.984480
19.100000 -1.911186 -1.989114
19.150000 -1.850656 -1.993678
19.200000 -1.795054 -1.998171
19.250000 -1.745844 -2.002596
19.300000 -1.704294 -2.006952
19.350000 -1.671445 -2.011242
19.400000 -1.648091 -2.015466
19.450000 -1.634761 -2.019626
19.500000 -1.631711 -2.023721
19.550000 -1.638926 -2.027754
19.600000 -1.656120 -2.031725
19.650000 -1.682752 -2.035635
19.700000 -1.718046 -2.039485
19.750000 -1.761014 -2.043277
19.800000 -1.810486 -2.047010
19.850000 -1.865147 -2.050686
19.900000 -1.923569 -2.054306
19.950000 -1.984253 -2.057870
20.000000 -2.045670 -2.061380
20.050000 -2.106302 -2.064836
20.100000 -2.164678 -2.068240
20.150000 -2.219413 -2.071591
20.200000 -2.269245 -2.074891
20.250000 -2.313059 -2.078140
20.300000 -2.349921 -2.081340
20.350000 -2.379093 -2.084491
20.400000 -2.400049 -2.087593
20.450000 -2.412487 -2.090649
20.500000 -2.416331 -2.093657
20.550000 -2.411729 -2.096620
20.600000 -2.399042 -2.099537
20.650000 -2.378836 -2.102410
20.700000 -2.351858 -2.105239
20.750000 -2.319015 -2.108024
20.800000 -2.281349 -2.110767
20.850000 -2.240005 -2.113469
20.900000 -2.196199 -2.116129
20.950000 -2.151186 -2.118748
21.000000 -2.106229 -2.121327
21.050000 -2.062560 -2.123867
21.100000 -2.021356 -2.126369
21.150000 -1.983703 -2.128832
21.200000 -1.950573 -2.131257
21.250000 -1.922801 -2.133646
21.300000 -1.901065 -2.135998
21.350000 -1.885872 -2.138314
21.400000 -1.877548 -2.140595
21.450000 -1.876233 -2.142841
21.500000 -1.881882 -2.145053
21.550000 -1.894267 -2.147232
21.600000 -1.912991 -2.149377
21.650000 -1.937498 -2.151489
21.700000 -1.967092 -2.153569
21.750000 -2.000958 -2.155618
21.800000 -2.038185 -2.157635
21.850000 -2.077792 -2.159622
21.900000 -2.118754 -2.161578
21.950000 -2.160031 -2.163504
22.000000 -2.200594 -2.165402
22.050000 -2.239452 -2.167270
22.100000 -2.275678 -2.169110
22.150000 -2.308430 -2.170922
22.200000 -2.336972 -2.172706
22.250000 -2.360691 -2.174463
22.300000 -2.379113 -2.176193
22.350000 -2.391907 -2.177898
22.400000 -2.398896 -2.179576
22.450000 -2.400056 -2.181228
22.500000 -2.395515 -2.182856
22.550000 -2.385544 -2.184459
22.600000 -2.370553 -2.186037
22.650000 -2.351069 -2.187592
22.700000 -2.327728 -2.189122
22.750000 -2.301252 -2.190630
22.800000 -2.272430 -2.192115
22.850000 -2.242095 -2.193577
22.900000 -2.211103 -2.195017
22.950000 -2.180310 -2.196435
23.000000 -2.150549 -2.197831
23.050000 -2.122608 -2.199206
23.100000 -2.097215 -2.200561
23.150000 -2.075013 -2.201895
23.200000 -2.056550 -2.203208
23.250000 -2.042268 -2.204502
23.300000 -2.032489 -2.205776
23.350000 -2.027411 -2.207030
23.400000 -2.027105 -2.208266
23.450000 -2.031518 -2.209483
23.500000 -2.040474 -2.210681
23.550000 -2.053682 -2.211862
23.600000 -2.070745 -2.213024
23.650000 -2.091175 -2.214169
23.700000 -2.114403 -2.215296
23.750000 -2.139800 -2.216406
23.800000 -2.166693 -2.217500
23.850000 -2.194381 -2.218577
23.900000 -2.222158 -2.219637
23.950000 -2.249327 -2.220682
24.000000 -2.275222 -2.221710
24.050000 -2.299221 -2.222723
24.100000 -2.320764 -2.223721
24.150000 -2.339366 -2.224704
24.200000 -2.354627 -2.225671
24.250000 -2.366241 -2.226624
24.300000 -2.374003 -2.227563
24.350000 -2.377811 -2.228487
24.400000 -2.377668 -2.229398
24.450000 -2.373680 -2.230294
24.500000 -2.366049 -2.231177
24.550000 -2.355067 -2.232047
24.600000 -2.341109 -2.232904
24.650000 -2.324619 -2.233747
24.700000 -2.306095 -2.234578
24.750000 -2.286082 -2.235396
24.800000 -2.265150 -2.236202
24.850000 -2.243881 -2.236996
24.900000 -2.222856 -2.237777
24.950000 -2.202636 -2.238547
25.000000 -2.183751 -2.239305
25.050000 -2.166685 -2.240052
25.100000 -2.151864 -2.240787
25.150000 -2.139650 -2.241512
25.200000 -2.130326 -2.242225
25.250000 -2.124096 -2.242928
25.300000 -2.121080 -2.243620
25.350000 -2.121311 -2.244301
25.400000 -2.124735 -2.244972
25.450000 -2.131220 -2.245633
25.500000 -2.140553 -2.246284
25.550000 -2.152453 -2.246926
25.600000 -2.166575 -2.247557
25.650000 -2.182527 -2.248179
25.700000 -2.199874 -2.248792
25.750000 -2.218153 -2.249395
25.800000 -2.236886 -2.249990
25.850000 -2.255594 -2.250575
25.900000 -2.273806 -2.251151
25.950000 -2.291073 -2.251719
26.000000 -2.306980 -2.252278
26.050000 -2.321155 -2.252829
26.100000 -2.333278 -2.253371
26.150000 -2.343089 -2.253906
26.200000 -2.350392 -2.254432
26.250000 -2.355059 -2.254950
26.300000 -2.357037 -2.255460
26.350000 -2.356338 -2.255963
26.400000 -2.353047 -2.256458
26.450000 -2.347313 -2.256946
26.500000 -2.339347 -2.257426
26.550000 -2.329411 -2.257899
26.600000 -2.317815 -2.258365
26.650000 -2.304904 -2.258824
26.700000 -2.291053 -2.259276
26.750000 -2.276650 -2.259722
26.800000 -2.262094 -2.260160
26.850000 -2.247776 -2.260592
26.900000 -2.234074 -2.261017
26.950000 -2.221345 -2.261436
27.000000 -2.209910 -2.261849
27.050000 -2.200052 -2.262255
27.100000 -2.192005 -2.262656
27.150000 -2.185955 -2.263050
27.200000 -2.182029 -2.263438
27.250000 -2.180298 -2.263821
27.300000 -2.180773 -2.264197
27.350000 -2.183407 -2.264568
27.400000 -2.188101 -2.264934
27.450000 -2.194700 -2.265294
27.500000 -2.203005 -2.265648
27.550000 -2.212776 -2.265998
27.600000 -2.223739 -2.266342
27.650000 -2.235595 -2.266680
27.700000 -2.248027 -2.267014
27.750000 -2.260708 -2.267343
27.800000 -2.273314 -2.267667
27.850000 -2.285527 -2.267985
27.900000 -2.297044 -2.268299
27.950000 -2.307590 -2.268609
28.000000 -2.316916 -2.268913
28.050000 -2.324813 -2.269213
28.100000 -2.331111 -2.269509
28.150000 -2.335686 -2.269800
28.200000 -2.338460 -2.270087
28.250000 -2.339404 -2.270369
28.300000 -2.338537 -2.270648
28.350000 -2.335925 -2.270922
28.400000 -2.331676 -2.271192
28.450000 -2.325940 -2.271457
28.500000 -2.318903 -2.271719
28.550000 -2.310780 -2.271977
28.600000 -2.301810 -2.272231
28.650000 -2.292249 -2.272481
28.700000 -2.282363 -2.272728
28.750000 -2.272423 -2.272971
28.800000 -2.262695 -2.273210
28.850000 -2.253432 -2.273445
28.900000 -2.244872 -2.273677
28.950000 -2.237231 -2.273906
29.000000 -2.230694 -2.274131
29.050000 -2.225416 -2.274352
29.100000 -2.221514 -2.274571
29.150000 -2.219069 -2.274786
29.200000 -2.218120 -2.274998
29.250000 -2.218669 -2.275206
29.300000 -2.220677 -2.275412
29.350000 -2.224069 -2.275614
29.400000 -2.228735 -2.275814
29.450000 -2.234533 -2.276010
29.500000 -2.241295 -2.276204
29.550000 -2.248832 -2.276394
29.600000 -2.256938 -2.276582
29.650000 -2.265395 -2.276767
29.700000 -2.273982 -2.276949
29.750000 -2.282479 -2.277128
29.800000 -2.290669 -2.277305
29.850000 -2.298352 -2.277479
29.900000 -2.305342 -2.277651
29.950000 -2.311476 -2.277819
30.000000 -2.316615 -2.277986
30.050000 -2.320650 -2.278150
30.100000 -2.323502 -2.278311
30.150000 -2.325125 -2.278470
30.200000 -2.325504 -2.278627
30.250000 -2.324658 -2.278781
30.300000 -2.322637 -2.278933
30.350000 -2.319522 -2.279082
30.400000 -2.315417 -2.279230
30.450000 -2.310454 -2.279375
30.500000 -2.304782 -2.279518
30.550000 -2.298566 -2.279659
30.600000 -2.291981 -2.279798
30.650000 -2.285210 -2.279934
30.700000 -2.278436 -2.280069
30.750000 -2.271839 -2.280202
30.800000 -2.265589 -2.280332
30.850000 -2.259846 -2.280461
30.900000 -2.254753 -2.280588
30.950000 -2.250431 -2.280713
31.000000 -2.246982 -2.280836
31.050000 -2.244482 -2.280957
31.100000 -2.242979 -2.281076
31.150000 -2.242495 -2.281194
31.200000 -2.243028 -2.281309
31.250000 -2.244545 -2.281423
31.300000 -2.246991 -2.281536
31.350000 -2.250287 -2.281646
31.400000 -2.254334 -2.281755
31.450000 -2.259014 -2.281863
31.500000 -2.264196 -2.281969
31.550000 -2.269738 -2.282073
31.600000 -2.275492 -2.282175
31.650000 -2.281307 -2.282276
31.700000 -2.287033 -2.282376
31.750000 -2.292526 -2.282474
31.800000 -2.297650 -2.282571
31.850000 -2.302282 -2.282666
31.900000 -2.306313 -2.282760
31.950000 -2.309653 -2.282852
32.000000 -2.312232 -2.282943
32.050000 -2.313999 -2.283033
32.100000 -2.314927 -2.283121
32.150000 -2.315011 -2.283208
32.200000 -2.314267 -2.283294
32.250000 -2.312734 -2.283378
32.300000 -2.310468 -2.283461
32.350000 -2.307546 -2.283543
32.400000 -2.304058 -2.283624
32.450000 -2.300108 -2.283703
32.500000 -2.295809 -2.283781
32.550000 -2.291284 -2.283858
32.600000 -2.286655 -2.283934
32.650000 -2.282046 -2.284009
32.700000 -2.277580 -2.284083
32.750000 -2.273371 -2.284155
32.800000 -2.269526 -2.284227
32.850000 -2.266138 -2.284297
32.900000 -2.263290 -2.284367
32.950000 -2.261045 -2.284435
33.000000 -2.259453 -2.284502
33.050000 -2.258543 -2.284569
33.100000 -2.258328 -2.284634
33.150000 -2.258801 -2.284698
33.200000 -2.259938 -2.284762
33.250000 -2.261697 -2.284824
33.300000 -2.264024 -2.284886
33.350000 -2.266846 -2.284946
33.400000 -2.270084 -2.285006
33.450000 -2.273646 -2.285065
33.500000 -2.277435 -2.285123
33.550000 -2.281350 -2.285180
33.600000 -2.285287 -2.285236
33.650000 -2.289145 -2.285291
33.700000 -2.292828 -2.285346
33.750000 -2.296244 -2.285399
33.800000 -2.299311 -2.285452
33.850000 -2.301958 -2.285504
33.900000 -2.304125 -2.285556
33.950000 -2.305768 -2.285606
34.000000 -2.306855 -2.285656
34.050000 -2.307369 -2.285705
34.100000 -2.307311 -2.285754
34.150000 -2.306694 -2.285801
34.200000 -2.305547 -2.285848
34.250000 -2.303910 -2.285895
34.300000 -2.301838 -2.285940
34.350000 -2.299394 -2.285985
34.400000 -2.296650 -2.286029
34.450000 -2.293684 -2.286073
34.500000 -2.290579 -2.286115
34.550000 -2.287419 -2.286158
34.600000 -2.284289 -2.286199
34.650000 -2.281270 -2.286240
34.700000 -2.278440 -2.286281
34.750000 -2.275870 -2.286321
34.800000 -2.273622 -2.286360
34.850000 -2.271750 -2.286398
34.900000 -2.270295 -2.286436
34.950000 -2.269289 -2.286474
35.000000 -2.268749 -2.286511
35.050000 -2.268681 -2.286547
35.100000 -2.269079 -2.286583
35.150000 -2.269924 -2.286618
35.200000 -2.271187 -2.286653
35.250000 -2.272827 -2.286687
35.300000 -2.274794 -2.286721
35.350000 -2.277033 -2.286754
35.400000 -2.279481 -2.286787
35.450000 -2.282071 -2.286819
35.500000 -2.284733 -2.286851
35.550000 -2.287397 -2.286882
35.600000 -2.289997 -2.286913
35.650000 -2.292464 -2.286943
35.700000 -2.294741 -2.286973
35.750000 -2.296770 -2.287003
35.800000 -2.298506 -2.287032
35.850000 -2.299910 -2.287060
35.900000 -2.300952 -2.287088
35.950000 -2.301614 -2.287116
36.000000 -2.301886 -2.287144
36.050000 -2.301770 -2.287170
36.100000 -2.301277 -2.287197
36.150000 -2.300428 -2.287223
36.200000 -2.299252 -2.287249
36.250000 -2.297788 -2.287274
36.300000 -2.296080 -2.287299
36.350000 -2.294177 -2.287324
36.400000 -2.292134 -2.287348
36.450000 -2.290007 -2.287372
36.500000 -2.287854 -2.287395
36.550000 -2.285731 -2.287419
36.600000 -2.283693 -2.287441
36.650000 -2.281794 -2.287464
36.700000 -2.280079 -2.287486
36.750000 -2.278591 -2.287508
36.800000 -2.277363 -2.287529
36.850000 -2.276424 -2.287551
36.900000 -2.275793 -2.287572
36.950000 -2.275481 -2.287592
37.000000 -2.275489 -2.287612
37.050000 -2.275812 -2.287632
37.100000 -2.276436 -2.287652
37.150000 -2.277340 -2.287671
37.200000 -2.278494 -2.287690
37.250000 -2.279864 -2.287709
37.300000 -2.281412 -2.287728
37.350000 -2.283093 -2.287746
37.400000 -2.284862 -2.287764
37.450000 -2.286672 -2.287782
37.500000 -2.288475 -2.287799
37.550000 -2.290225 -2.287816
37.600000 -2.291878 -2.287833
37.650000 -2.293393 -2.287850
37.700000 -2.294735 -2.287866
37.750000 -2.295872 -2.287882
37.800000 -2.296779 -2.287898
37.850000 -2.297437 -2.287914
37.900000 -2.297835 -2.287930
37.950000 -2.297968 -2.287945
38.000000 -2.297838 -2.287960
38.050000 -2.297454 -2.287975
38.100000 -2.296831 -2.287989
38.150000 -2.295991 -2.288004
38.200000 -2.294960 -2.288018
38.250000 -2.293769 -2.288032
38.300000 -2.292452 -2.288045
38.350000 -2.291047 -2.288059
38.400000 -2.289592 -2.288072
38.450000 -2.288126 -2.288085
38.500000 -2.286688 -2.288098
38.550000 -2.285315 -2.288111
38.600000 -2.284042 -2.288124
38.650000 -2.282900 -2.288136
38.700000 -2.281916 -2.288148
38.750000 -2.281114 -2.288160
38.800000 -2.280511 -2.288172
38.850000 -2.280119 -2.288184
38.900000 -2.279944 -2.288195
38.950000 -2.279987 -2.288206
39.000000 -2.280243 -2.288217
39.050000 -2.280701 -2.288228
39.100000 -2.281346 -2.288239
39.150000 -2.282157 -2.288250
39.200000 -2.283110 -2.288260
39.250000 -2.284179 -2.288271
39.300000 -2.285333 -2.288281
39.350000 -2.286541 -2.288291
39.400000 -2.287770 -2.288301
39.450000 -2.288990 -2.288310
39.500000 -2.290167 -2.288320
39.550000 -2.291274 -2.288330
39.600000 -2.292282 -2.288339
39.650000 -2.293168 -2.288348
39.700000 -2.293911 -2.288357
39.750000 -2.294496 -2.288366
39.800000 -2.294910 -2.288375
39.850000 -2.295145 -2.288383
39.900000 -2.295201 -2.288392
39.950000 -2.295078 -2.288400
40.000000 -2.294785 -2.288408
40.050000 -2.294331 -2.288417
40.100000 -2.293733 -2.288425
40.150000 -2.293009 -2.288433
40.200000 -2.292180 -2.288440
40.250000 -2.291270 -2.288448
40.300000 -2.290305 -2.288456
40.350000 -2.289311 -2.288463
40.400000 -2.288315 -2.288470
40.450000 -2.287342 -2.288477
40.500000 -2.286418 -2.288485
40.550000 -2.285565 -2.288492
40.600000 -2.284806 -2.288499
40.650000 -2.284158 -2.288505
40.700000 -2.283635 -2.288512
40.750000 -2.283249 -2.288519
40.800000 -2.283008 -2.288525
40.850000 -2.282915 -2.288532
40.900000 -2.282970 -2.288538
40.950000 -2.283169 -2.288544
41.000000 -2.283503 -2.288550
41.050000 -2.283962 -2.288556
41.100000 -2.284531 -2.288562
41.150000 -2.285194 -2.288568
41.200000 -2.285931 -2.288574
41.250000 -2.286723 -2.288579
41.300000 -2.287547 -2.288585
41.350000 -2.288382 -2.288591
41.400000 -2.289206 -2.288596
41.450000 -2.289998 -2.288601
41.500000 -2.290738 -2.288607
41.550000 -2.291409 -2.288612
41.600000 -2.291993 -2.288617
41.650000 -2.292478 -2.288622
41.700000 -2.292853 -2.288627
41.750000 -2.293112 -2.288632
41.800000 -2.293248 -2.288637
41.850000 -2.293263 -2.288641
41.900000 -2.293157 -2.288646
41.950000 -2.292935 -2.288651
42.000000 -2.292607 -2.288655
42.050000 -2.292183 -2.288660
42.100000 -2.291676 -2.288664
42.150000 -2.291100 -2.288669
42.200000 -2.290472 -2.288673
42.250000 -2.289810 -2.288677
42.300000 -2.289132 -2.288681
42.350000 -2.288455 -2.288685
42.400000 -2.287798 -2.288689
42.450000 -2.287177 -2.288693
42.500000 -2.286607 -2.288697
42.550000 -2.286103 -2.288701
42.600000 -2.285677 -2.288705
42.650000 -2.285337 -2.288709
42.700000 -2.285092 -2.288712
42.750000 -2.284946 -2.288716
42.800000 -2.284900 -2.288720
42.850000 -2.284955 -2.288723
42.900000 -2.285107 -2.288727
42.950000 -2.285349 -2.288730
43.000000 -2.285675 -2.288733
43.050000 -2.286074 -2.288737
43.100000 -2.286534 -2.288740
43.150000 -2.287043 -2.288743
43.200000 -2.287585 -2.288746
43.250000 -2.288147 -2.288749
43.300000 -2.288714 -2.288753
43.350000 -2.289271 -2.288756
43.400000 -2.289803 -2.288759
43.450000 -2.290298 -2.288762
43.500000 -2.290743 -2.288764
43.550000 -2.291127 -2.288767
43.600000 -2.291443 -2.288770
43.650000 -2.291684 -2.288773
43.700000 -2.291844 -2.288776
43.750000 -2.291921 -2.288778
43.800000 -2.291915 -2.288781
43.850000 -2.291827 -2.288784
43.900000 -2.291663 -2.288786
43.950000 -2.291426 -2.288789
44.000000 -2.291126 -2.288791
44.050000 -2.290772 -2.288794
44.100000 -2.290372 -2.288796
44.150000 -2.289940 -2.288799
44.200000 -2.289487 -2.288801
44.250000 -2.289024 -2.288803
44.300000 -2.288565 -2.288805
44.350000 -2.288122 -2.288808
44.400000 -2.287705 -2.288810
44.450000 -2.287324 -2.288812
44.500000 -2.286990 -2.288814
44.550000 -2.286710 -2.288816
44.600000 -2.286491 -2.288819
44.650000 -2.286336 -2.288821
44.700000 -2.286248 -2.288823
44.750000 -2.286230 -2.288825
44.800000 -2.286279 -2.288827
44.850000 -2.286393 -2.288829
44.900000 -2.286569 -2.288830
44.950000 -2.286799 -2.288832
45.000000 -2.287078 -2.288834
45.050000 -2.287397 -2.288836
45.100000 -2.287748 -2.288838
45.150000 -2.288119 -2.288840
45.200000 -2.288503 -2.288841
45.250000 -2.288887 -2.288843
45.300000 -2.289263 -2.288845
45.350000 -2.289620 -2.288846
45.400000 -2.289950 -2.288848
45.450000 -2.290245 -2.288850
45.500000 -2.290499 -2.288851
45.550000 -2.290704 -2.288853
45.600000 -2.290857 -2.288854
45.650000 -2.290955 -2.288856
45.700000 -2.290997 -2.288858
45.750000 -2.290982 -2.288859
45.800000 -2.290913 -2.288860
45.850000 -2.290791 -2.288862
45.900000 -2.290622 -2.288863
45.950000 -2.290410 -2.288865
46.000000 -2.290163 -2.288866
46.050000 -2.289886 -2.288868
46.100000 -2.289589 -2.288869
46.150000 -2.289278 -2.288870
46.200000 -2.288964 -2.288871
46.250000 -2.288653 -2.288873
46.300000 -2.288354 -2.288874
46.350000 -2.288074 -2.288875
46.400000 -2.287821 -2.288876
46.450000 -2.287600 -2.288878
46.500000 -2.287416 -2.288879
46.550000 -2.287275 -2.288880
46.600000 -2.287177 -2.288881
46.650000 -2.287126 -2.288882
46.700000 -2.287122 -2.288883
46.750000 -2.287163 -2.288885
46.800000 -2.287249 -2.288886
46.850000 -2.287375 -2.288887
46.900000 -2.287538 -2.288888
46.950000 -2.287733 -2.288889
47.000000 -2.287954 -2.288890
47.050000 -2.288195 -2.288891
47.100000 -2.288450 -2.288892
47.150000 -2.288710 -2.288893
47.200000 -2.288971 -2.288894
47.250000 -2.289224 -2.288895
47.300000 -2.289464 -2.288896
47.350000 -2.289684 -2.288897
47.400000 -2.289880 -2.288898
47.450000 -2.290046 -2.288898
47.500000 -2.290179 -2.288899
47.550000 -2.290276 -2.288900
47.600000 -2.290336 -2.288901
47.650000 -2.290357 -2.288902
47.700000 -2.290340 -2.288903
47.750000 -2.290286 -2.288904
47.800000 -2.290197 -2.288904
47.850000 -2.290076 -2.288905
47.900000 -2.289927 -2.288906
47.950000 -2.289755 -2.288907
48.000000 -2.289564 -2.288907
48.050000 -2.289359 -2.288908
48.100000 -2.289147 -2.288909
48.150000 -2.288933 -2.288910
48.200000 -2.288723 -2.288910
48.250000 -2.288521 -2.288911
48.300000 -2.288334 -2.288912
48.350000 -2.288165 -2.288913
48.400000 -2.288019 -2.288913
48.450000 -2.287900 -2.288914
48.500000 -2.287809 -2.288915
48.550000 -2.287748 -2.288915
48.600000 -2.287719 -2.288916
48.650000 -2.287722 -2.288916
48.700000 -2.287755 -2.288917
48.750000 -2.287819 -2.288918
48.800000 -2.287909 -2.288918
48.850000 -2.288024 -2.288919
48.900000 -2.288160 -2.288919
48.950000 -2.288313 -2.288920
49.000000 -2.288479 -2.288921
49.050000 -2.288653 -2.288921
49.100000 -2.288830 -2.288922
49.150000 -2.289007 -2.288922
49.200000 -2.289177 -2.288923
49.250000 -2.289338 -2.288923
49.300000 -2.289485 -2.288924
49.350000 -2.289614 -2.288924
49.400000 -2.289723 -2.288925
49.450000 -2.289809 -2.288925
49.500000 -2.289871 -2.288926
49.550000 -2.289906 -2.288926
49.600000 -2.289916 -2.288927
49.650000 -2.289899 -2.288927
49.700000 -2.289858 -2.288928
49.750000 -2.289793 -2.288928
49.800000 -2.289707 -2.288929
49.850000 -2.289603 -2.288929
49.900000 -2.289483 -2.288929
49.950000 -2.289351 -2.288930
50.000000 -2.289211 -2.288930
50.050000 -2.289066 -2.288931
50.100000 -2.288920 -2.288931
50.150000 -2.288778 -2.288932
50.200000 -2.288643 -2.288932
50.250000 -2.288517 -2.288932
50.300000 -2.288405 -2.288933
50.350000 -2.288309 -2.288933
50.400000 -2.288231 -2.288933
50.450000 -2.288173 -2.288934
50.500000 -2.288135 -2.288934
50.550000 -2.288120 -2.288935
50.600000 -2.288125 -2.288935
50.650000 -2.288152 -2.288935
50.700000 -2.288198 -2.288936
50.750000 -2.288263 -2.288936
50.800000 -2.288344 -2.288936
50.850000 -2.288439 -2.288937
50.900000 -2.288544 -2.288937
50.950000 -2.288658 -2.288937
51.000000 -2.288777 -2.288938
51.050000 -2.288898 -2.288938
51.100000 -2.289017 -2.288938
51.150000 -2.289132 -2.288938
51.200000 -2.289240 -2.288939
51.250000 -2.289338 -2.288939
51.300000 -2.289423 -2.288939
51.350000 -2.289494 -2.288940
51.400000 -2.289550 -2.288940
51.450000 -2.289588 -2.288940
51.500000 -2.289609 -2.288940
51.550000 -2.289612 -2.288941
51.600000 -2.289598 -2.288941
51.650000 -2.289566 -2.288941
51.700000 -2.289520 -2.288941
51.750000 -2.289459 -2.288942
51.800000 -2.289386 -2.288942
51.850000 -2.289302 -2.288942
51.900000 -2.289211 -2.288942
51.950000 -2.289115 -2.288943
52.000000 -2.289016 -2.288943
52.050000 -2.288918 -2.288943
52.100000 -2.288822 -2.288943
52.150000 -2.288731 -2.288944
52.200000 -2.288647 -2.288944
52.250000 -2.288573 -2.288944
52.300000 -2.288509 -2.288944
52.350000 -2.288459 -2.288944
52.400000 -2.288422 -2.288945
52.450000 -2.288399 -2.288945
52.500000 -2.288391 -2.288945
52.550000 -2.288397 -2.288945
52.600000 -2.288418 -2.288945
52.650000 -2.288452 -2.288946
52.700000 -2.288498 -2.288946
52.750000 -2.288554 -2.288946
52.800000 -2.288620 -2.288946
52.850000 -2.288693 -2.288946
52.900000 -2.288771 -2.288947
52.950000 -2.288853 -2.288947
53.000000 -2.288935 -2.288947
53.050000 -2.289015 -2.288947
53.100000 -2.289093 -2.288947
53.150000 -2.289165 -2.288947
53.200000 -2.289230 -2.288948
53.250000 -2.289286 -2.288948
53.300000 -2.289333 -2.288948
53.350000 -2.289368 -2.288948
53.400000 -2.289392 -2.288948
53.450000 -2.289404 -2.288948
53.500000 -2.289404 -2.288949
53.550000 -2.289392 -2.288949
53.600000 -2.289369 -2.288949
53.650000 -2.289335 -2.288949
53.700000 -2.289292 -2.288949
53.750000 -2.289241 -2.288949
53.800000 -2.289183 -2.288949
53.850000 -2.289120 -2.288949
53.900000 -2.289055 -2.288950
53.950000 -2.288987 -2.288950
54.000000 -2.288920 -2.288950
54.050000 -2.288856 -2.288950
54.100000 -2.288794 -2.288950
54.150000 -2.288739 -2.288950
54.200000 -2.288689 -2.288950
54.250000 -2.288648 -2.288951
54.300000 -2.288615 -2.288951
54.350000 -2.288592 -2.288951
54.400000 -2.288578 -2.288951
54.450000 -2.288574 -2.288951
54.500000 -2.288580 -2.288951
54.550000 -2.288596 -2.288951
54.600000 -2.288621 -2.288951
54.650000 -2.288653 -2.288951
54.700000 -2.288693 -2.288952
54.750000 -2.288739 -2.288952
54.800000 -2.288789 -2.288952
54.850000 -2.288843 -2.288952
54.900000 -2.288898 -2.288952
54.950000 -2.288954 -2.288952
55.000000 -2.289008 -2.288952
55.050000 -2.289060 -2.288952
55.100000 -2.289109 -2.288952
55.150000 -2.289152 -2.288952
55.200000 -2.289189 -2.288952
55.250000 -2.289219 -2.288953
55.300000 -2.289242 -2.288953
55.350000 -2.289257 -2.288953
55.400000 -2.289263 -2.288953
55.450000 -2.289262 -2.288953
55.500000 -2.289252 -2.288953
55.550000 -2.289235 -2.288953
55.600000 -2.289211 -2.288953
55.650000 -2.289180 -2.288953
55.700000 -2.289145 -2.288953
55.750000 -2.289105 -2.288953
55.800000 -2.289062 -2.288953
55.850000 -2.289017 -2.288954
55.900000 -2.288971 -2.288954
55.950000 -2.288925 -2.288954
56.000000 -2.288882 -2.288954
56.050000 -2.288841 -2.288954
56.100000 -2.288803 -2.288954
56.150000 -2.288771 -2.288954
56.200000 -2.288744 -2.288954
56.250000 -2.288722 -2.288954
56.300000 -2.288708 -2.288954
56.350000 -2.288700 -2.288954
56.400000 -2.288698 -2.288954
56.450000 -2.288704 -2.288954
56.500000 -2.288716 -2.288954
56.550000 -2.288733 -2.288954
56.600000 -2.288756 -2.288955
56.650000 -2.288784 -2.288955
56.700000 -2.288816 -2.288955
56.750000 -2.288851 -2.288955
56.800000 -2.288887 -2.288955
56.850000 -2.288925 -2.288955
56.900000 -2.288963 -2.288955
56.950000 -2.289000 -2.288955
57.000000 -2.289035 -2.288955
57.050000 -2.289067 -2.288955
57.100000 -2.289096 -2.288955
57.150000 -2.289120 -2.288955
57.200000 -2.289140 -2.288955
57.250000 -2.289154 -2.288955
57.300000 -2.289163 -2.288955
57.350000 -2.289167 -2.288955
57.400000 -2.289164 -2.288955
57.450000 -2.289157 -2.288955
57.500000 -2.289144 -2.288955
57.550000 -2.289127 -2.288956
57.600000 -2.289106 -2.288956
57.650000 -2.289081 -2.288956
57.700000 -2.289053 -2.288956
57.750000 -2.289024 -2.288956
57.800000 -2.288993 -2.288956
57.850000 -2.288962 -2.288956
57.900000 -2.288931 -2.288956
57.950000 -2.288902 -2.288956
58.000000 -2.288874 -2.288956
58.050000 -2.288849 -2.288956
58.100000 -2.288828 -2.288956
58.150000 -2.288810 -2.288956
58.200000 -2.288796 -2.288956
58.250000 -2.288787 -2.288956
58.300000 -2.288783 -2.288956
58.350000 -2.288783 -2.288956
58.400000 -2.288787 -2.288956
58.450000 -2.288796 -2.288956
58.500000 -2.288809 -2.288956
58.550000 -2.288825 -2.288956
58.600000 -2.288844 -2.288956
58.650000 -2.288866 -2.288956
58.700000 -2.288890 -2.288956
58.750000 -2.288915 -2.288956
58.800000 -2.288941 -2.288956
58.850000 -2.288967 -2.288956
58.900000 -2.288991 -2.288957
58.950000 -2.289015 -2.288957
59.000000 -2.289036 -2.288957
59.050000 -2.289055 -2.288957
59.100000 -2.289071 -2.288957
59.150000 -2.289084 -2.288957
59.200000 -2.289093 -2.288957
59.250000 -2.289099 -2.288957
59.300000 -2.289100 -2.288957
59.350000 -2.289098 -2.288957
59.400000 -2.289092 -2.288957
59.450000 -2.289083 -2.288957
59.500000 -2.289071 -2.288957
59.550000 -2.289056 -2.288957
59.600000 -2.289039 -2.288957
59.650000 -2.289020 -2.288957
59.700000 -2.288999 -2.288957
59.750000 -2.288978 -2.288957
59.800000 -2.288957 -2.288957
59.850000 -2.288936 -2.288957
59.900000 -2.288917 -2.288957
59.950000 -2.288898 -2.288957
60.000000 -2.288882 -2.288957
60.050000 -2.288868 -2.288957
60.100000 -2.288856 -2.288957
60.150000 -2.288847 -2.288957
60.200000 -2.288842 -2.288957
60.250000 -2.288839 -2.288957
60.300000 -2.288839 -2.288957
60.350000 -2.288843 -2.288957
60.400000 -2.288850 -2.288957
60.450000 -2.288859 -2.288957
60.500000 -2.288870 -2.288957
60.550000 -2.288884 -2.288957
60.600000 -2.288899 -2.288957
60.650000 -2.288915 -2.288957
60.700000 -2.288933 -2.288957
60.750000 -2.288950 -2.288957
60.800000 -2.288967 -2.288957
60.850000 -2.288984 -2.288957
60.900000 -2.289000 -2.288957
60.950000 -2.289014 -2.288957
61.000000 -2.289027 -2.288957
61.050000 -2.289037 -2.288957
61.100000 -2.289045 -2.288957
61.150000 -2.289051 -2.288957
61.200000 -2.289054 -2.288958
61.250000 -2.289055 -2.288958
61.300000 -2.289053 -2.288958
61.350000 -2.289049 -2.288958
61.400000 -2.289042 -2.288958
61.450000 -2.289033 -2.288958
61.500000 -2.289023 -2.288958
61.550000 -2.289011 -2.288958
61.600000 -2.288998 -2.288958
61.650000 -2.288984 -2.288958
61.700000 -2.288970 -2.288958
61.750000 -2.288955 -2.288958
61.800000 -2.288941 -2.288958
61.850000 -2.288928 -2.288958
61.900000 -2.288916 -2.288958
61.950000 -2.288905 -2.288958
62.000000 -2.288895 -2.288958
62.050000 -2.288888 -2.288958
62.100000 -2.288882 -2.288958
62.150000 -2.288879 -2.288958
62.200000 -2.288877 -2.288958
62.250000 -2.288878 -2.288958
62.300000 -2.288881 -2.288958
62.350000 -2.288886 -2.288958
62.400000 -2.288892 -2.288958
62.450000 -2.288900 -2.288958
62.500000 -2.288910 -2.288958
62.550000 -2.288920 -2.288958
62.600000 -2.288931 -2.288958
62.650000 -2.288943 -2.288958
62.700000 -2.288955 -2.288958
62.750000 -2.288967 -2.288958
62.800000 -2.288978 -2.288958
62.850000 -2.288989 -2.288958
62.900000 -2.288998 -2.288958
62.950000 -2.289006 -2.288958
63.000000 -2.289013 -2.288958
63.050000 -2.289019 -2.288958
63.100000 -2.289022 -2.288958
63.150000 -2.289024 -2.288958
63.200000 -2.289024 -2.288958
63.250000 -2.289023 -2.288958
63.300000 -2.289019 -2.288958
63.350000 -2.289014 -2.288958
63.400000 -2.289008 -2.288958
63.450000 -2.289001 -2.288958
63.500000 -2.288993 -2.288958
63.550000 -2.288984 -2.288958
63.600000 -2.288974 -2.288958
63.650000 -2.288964 -2.288958
63.700000 -2.288955 -2.288958
63.750000 -2.288945 -2.288958
63.800000 -2.288936 -2.288958
63.850000 -2.288928 -2.288958
63.900000 -2.288921 -2.288958
63.950000 -2.288915 -2.288958
64.000000 -2.288910 -2.288958
64.050000 -2.288906 -2.288958
64.100000 -2.288904 -2.288958
64.150000 -2.288903 -2.288958
64.200000 -2.288904 -2.288958
64.250000 -2.288906 -2.288958
64.300000 -2.288910 -2.288958
64.350000 -2.288914 -2.288958
64.400000 -2.288920 -2.288958
64.450000 -2.288927 -2.288958
64.500000 -2.288934 -2.288958
64.550000 -2.288942 -2.288958
64.600000 -2.288950 -2.288958
64.650000 -2.288958 -2.288958
64.700000 -2.288966 -2.288958
64.750000 -2.288973 -2.288958
64.800000 -2.288980 -2.288958
64.850000 -2.288987 -2.288958
64.900000 -2.288992 -2.288958
64.950000 -2.288997 -2.288958
65.000000 -2.289000 -2.288958
65.050000 -2.289002 -2.288958
65.100000 -2.289003 -2.288958
65.150000 -2.289003 -2.288958
65.200000 -2.289002 -2.288958
65.250000 -2.288999 -2.288958
65.300000 -2.288996 -2.288958
65.350000 -2.288992 -2.288958
65.400000 -2.288986 -2.288958
65.450000 -2.288981 -2.288958
65.500000 -2.288974 -2.288958
65.550000 -2.288968 -2.288958
65.600000 -2.288961 -2.288958
65.650000 -2.288955 -2.288958
65.700000 -2.288948 -2.288958
65.750000 -2.288942 -2.288958
65.800000 -2.288937 -2.288958
65.850000 -2.288932 -2.288958
65.900000 -2.288928 -2.288958
65.950000 -2.288925 -2.288958
66.000000 -2.288923 -2.288958
66.050000 -2.288921 -2.288958
66.100000 -2.288921 -2.288958
66.150000 -2.288922 -2.288958
66.200000 -2.288923 -2.288958
66.250000 -2.288926 -2.288958
66.300000 -2.288929 -2.288958
66.350000 -2.288933 -2.288958
66.400000 -2.288938 -2.288958
66.450000 -2.288943 -2.288958
66.500000 -2.288948 -2.288958
66.550000 -2.288954 -2.288958
66.600000 -2.288959 -2.288958
66.650000 -2.288964 -2.288958
66.700000 -2.288970 -2.288958
66.750000 -2.288974 -2.288958
66.800000 -2.288978 -2.288958
66.850000 -2.288982 -2.288958
66.900000 -2.288985 -2.288958
66.950000 -2.288987 -2.288958
67.000000 -2.288988 -2.288958
67.050000 -2.288989 -2.288958
67.100000 -2.288989 -2.288958
67.150000 -2.288988 -2.288958
67.200000 -2.288986 -2.288958
67.250000 -2.288983 -2.288958
67.300000 -2.288980 -2.288958
67.350000 -2.288977 -2.288958
67.400000 -2.288973 -2.288958
67.450000 -2.288969 -2.288958
67.500000 -2.288964 -2.288958
67.550000 -2.288960 -2.288958
67.600000 -2.288955 -2.288958
67.650000 -2.288951 -2.288958
67.700000 -2.288947 -2.288958
67.750000 -2.288943 -2.288958
67.800000 -2.288940 -2.288958
67.850000 -2.288937 -2.288958
67.900000 -2.288935 -2.288958
67.950000 -2.288934 -2.288958
68.000000 -2.288933 -2.288958
68.050000 -2.288933 -2.288958
68.100000 -2.288934 -2.288958
68.150000 -2.288935 -2.288958
68.200000 -2.288937 -2.288958
68.250000 -2.288939 -2.288958
68.300000 -2.288942 -2.288958
68.350000 -2.288945 -2.288958
68.400000 -2.288949 -2.288958
68.450000 -2.288952 -2.288958
68.500000 -2.288956 -2.288958
68.550000 -2.288960 -2.288958
68.600000 -2.288963 -2.288958
68.650000 -2.288967 -2.288958
68.700000 -2.288970 -2.288958
68.750000 -2.288973 -2.288958
68.800000 -2.288975 -2.288958
68.850000 -2.288977 -2.288958
68.900000 -2.288978 -2.288958
68.950000 -2.288979 -2.288958
69.000000 -2.288979 -2.288958
69.050000 -2.288979 -2.288958
69.100000 -2.288978 -2.288958
69.150000 -2.288977 -2.288958
69.200000 -2.288975 -2.288958
69.250000 -2.288973 -2.288958
69.300000 -2.288971 -2.288958
69.350000 -2.288968 -2.288958
69.400000 -2.288965 -2.288958
69.450000 -2.288962 -2.288958
69.500000 -2.288959 -2.288958
69.550000 -2.288956 -2.288958
69.600000 -2.288953 -2.288958
69.650000 -2.288950 -2.288958
69.700000 -2.288948 -2.288958
69.750000 -2.288946 -2.288958
69.800000 -2.288944 -2.288958
69.850000 -2.288943 -2.288958
69.900000 -2.288942 -2.288958
69.950000 -2.288941 -2.288958
70.000000 -2.288941 -2.288958
70.050000 -2.288942 -2.288958
70.100000 -2.288943 -2.288958
70.150000 -2.288944 -2.288958
70.200000 -2.288946 -2.288958
70.250000 -2.288948 -2.288958
70.300000 -2.288950 -2.288958
70.350000 -2.288952 -2.288958
70.400000 -2.288955 -2.288958
70.450000 -2.288957 -2.288958
70.500000 -2.288960 -2.288958
70.550000 -2.288962 -2.288958
70.600000 -2.288964 -2.288958
70.650000 -2.288967 -2.288958
70.700000 -2.288968 -2.288958
70.750000 -2.288970 -2.288958
70.800000 -2.288971 -2.288958
70.850000 -2.288972 -2.288958
70.900000 -2.288973 -2.288958
70.950000 -2.288973 -2.288958
71.000000 -2.288972 -2.288958
71.050000 -2.288972 -2.288958
71.100000 -2.288971 -2.288958
71.150000 -2.288970 -2.288958
71.200000 -2.288968 -2.288958
71.250000 -2.288966 -2.288958
71.300000 -2.288964 -2.288958
71.350000 -2.288962 -2.288958
71.400000 -2.288960 -2.288958
71.450000 -2.288958 -2.288958
71.500000 -2.288956 -2.288958
71.550000 -2.288954 -2.288958
71.600000 -2.288953 -2.288958
71.650000 -2.288951 -2.288958
71.700000 -2.288950 -2.288958
71.750000 -2.288948 -2.288958
71.800000 -2.288948 -2.288958
71.850000 -2.288947 -2.288958
71.900000 -2.288947 -2.288958
71.950000 -2.288947 -2.288958
72.000000 -2.288947 -2.288958
72.050000 -2.288948 -2.288958
72.100000 -2.288949 -2.288958
72.150000 -2.288950 -2.288958
72.200000 -2.288951 -2.288958
72.250000 -2.288953 -2.288958
72.300000 -2.288955 -2.288958
72.350000 -2.288956 -2.288958
72.400000 -2.288958 -2.288958
72.450000 -2.288960 -2.288958
72.500000 -2.288961 -2.288958
72.550000 -2.288963 -2.288958
72.600000 -2.288964 -2.288959
72.650000 -2.288965 -2.288959
72.700000 -2.288966 -2.288959
72.750000 -2.288967 -2.288959
72.800000 -2.288968 -2.288959
72.850000 -2.288968 -2.288959
72.900000 -2.288968 -2.288959
72.950000 -2.288968 -2.288959
73.000000 -2.288967 -2.288959
73.050000 -2.288967 -2.288959
73.100000 -2.288966 -2.288959
73.150000 -2.288965 -2.288959
73.200000 -2.288964 -2.288959
73.250000 -2.288962 -2.288959
73.300000 -2.288961 -2.288959
73.350000 -2.288960 -2.288959
73.400000 -2.288958 -2.288959
73.450000 -2.288957 -2.288959
73.500000 -2.288955 -2.288959
73.550000 -2.288954 -2.288959
73.600000 -2.288953 -2.288959
73.650000 -2.288952 -2.288959
73.700000 -2.288952 -2.288959
73.750000 -2.288951 -2.288959
73.800000 -2.288951 -2.288959
73.850000 -2.288951 -2.288959
73.900000 -2.288951 -2.288959
73.950000 -2.288951 -2.288959
74.000000 -2.288951 -2.288959
74.050000 -2.288952 -2.288959
74.100000 -2.288953 -2.288959
74.150000 -2.288954 -2.288959
74.200000 -2.288955 -2.288959
74.250000 -2.288956 -2.288959
74.300000 -2.288957 -2.288959
74.350000 -2.288958 -2.288959
74.400000 -2.288960 -2.288959
74.450000 -2.288961 -2.288959
74.500000 -2.288962 -2.288959
74.550000 -2.288963 -2.288959
74.600000 -2.288963 -2.288959
74.650000 -2.288964 -2.288959
74.700000 -2.288965 -2.288959
74.750000 -2.288965 -2.288959
74.800000 -2.288965 -2.288959
74.850000 -2.288965 -2.288959
74.900000 -2.288965 -2.288959
74.950000 -2.288965 -2.288959
75.000000 -2.288964 -2.288959
75.050000 -2.288963 -2.288959
75.100000 -2.288963 -2.288959
75.150000 -2.288962 -2.288959
75.200000 -2.288961 -2.288959
75.250000 -2.288960 -2.288959
75.300000 -2.288959 -2.288959
75.350000 -2.288958 -2.288959
75.400000 -2.288957 -2.288959
75.450000 -2.288956 -2.288959
75.500000 -2.288955 -2.288959
75.550000 -2.288955 -2.288959
75.600000 -2.288954 -2.288959
75.650000 -2.288954 -2.288959
75.700000 -2.288953 -2.288959
75.750000 -2.288953 -2.288959
75.800000 -2.288953 -2.288959
75.850000 -2.288953 -2.288959
75.900000 -2.288953 -2.288959
75.950000 -2.288954 -2.288959
76.000000 -2.288954 -2.288959
76.050000 -2.288955 -2.288959
76.100000 -2.288955 -2.288959
76.150000 -2.288956 -2.288959
76.200000 -2.288957 -2.288959
76.250000 -2.288958 -2.288959
76.300000 -2.288959 -2.288959
76.350000 -2.288959 -2.288959
76.400000 -2.288960 -2.288959
76.450000 -2.288961 -2.288959
76.500000 -2.288961 -2.288959
76.550000 -2.288962 -2.288959
76.600000 -2.288962 -2.288959
76.650000 -2.288963 -2.288959
76.700000 -2.288963 -2.288959
76.750000 -2.288963 -2.288959
76.800000 -2.288963 -2.288959
76.850000 -2.288963 -2.288959
76.900000 -2.288963 -2.288959
76.950000 -2.288962 -2.288959
77.000000 -2.288962 -2.288959
77.050000 -2.288961 -2.288959
77.100000 -2.288961 -2.288959
77.150000 -2.288960 -2.288959
77.200000 -2.288959 -2.288959
77.250000 -2.288959 -2.288959
77.300000 -2.288958 -2.288959
77.350000 -2.288957 -2.288959
77.400000 -2.288957 -2.288959
77.450000 -2.288956 -2.288959
77.500000 -2.288956 -2.288959
77.550000 -2.288956 -2.288959
77.600000 -2.288955 -2.288959
77.650000 -2.288955 -2.288959
77.700000 -2.288955 -2.288959
77.750000 -2.288955 -2.288959
77.800000 -2.288955 -2.288959
77.850000 -2.288955 -2.288959
77.900000 -2.288955 -2.288959
77.950000 -2.288956 -2.288959
78.000000 -2.288956 -2.288959
78.050000 -2.288957 -2.288959
78.100000 -2.288957 -2.288959
78.150000 -2.288958 -2.288959
78.200000 -2.288958 -2.288959
78.250000 -2.288959 -2.288959
78.300000 -2.288959 -2.288959
78.350000 -2.288960 -2.288959
78.400000 -2.288960 -2.288959
78.450000 -2.288961 -2.288959
78.500000 -2.288961 -2.288959
78.550000 -2.288961 -2.288959
78.600000 -2.288961 -2.288959
78.650000 -2.288962 -2.288959
78.700000 -2.288962 -2.288959
78.750000 -2.288962 -2.288959
78.800000 -2.288961 -2.288959
78.850000 -2.288961 -2.288959
78.900000 -2.288961 -2.288959
78.950000 -2.288961 -2.288959
79.000000 -2.288960 -2.288959
79.050000 -2.288960 -2.288959
79.100000 -2.288959 -2.288959
79.150000 -2.288959 -2.288959
79.200000 -2.288959 -2.288959
79.250000 -2.288958 -2.288959
79.300000 -2.288958 -2.288959
79.350000 -2.288957 -2.288959
79.400000 -2.288957 -2.288959
79.450000 -2.288957 -2.288959
79.500000 -2.288956 -2.288959
79.550000 -2.288956 -2.288959
79.600000 -2.288956 -2.288959
79.650000 -2.288956 -2.288959
79.700000 -2.288956 -2.288959
79.750000 -2.288956 -2.288959
79.800000 -2.288956 -2.288959
79.850000 -2.288956 -2.288959
79.900000 -2.288957 -2.288959
79.950000 -2.288957 -2.288959
80.000000 -2.288957 -2.288959
80.050000 -2.288958 -2.288959
80.100000 -2.288958 -2.288959
80.150000 -2.288958 -2.288959
80.200000 -2.288959 -2.288959
80.250000 -2.288959 -2.288959
80.300000 -2.288959 -2.288959
80.350000 -2.288960 -2.288959
80.400000 -2.288960 -2.288959
80.450000 -2.288960 -2.288959
80.500000 -2.288960 -2.288959
80.550000 -2.288960 -2.288959
80.600000 -2.288961 -2.288959
80.650000 -2.288961 -2.288959
80.700000 -2.288961 -2.288959
80.750000 -2.288960 -2.288959
80.800000 -2.288960 -2.288959
80.850000 -2.288960 -2.288959
80.900000 -2.288960 -2.288959
80.950000 -2.288960 -2.288959
81.000000 -2.288959 -2.288959
81.050000 -2.288959 -2.288959
81.100000 -2.288959 -2.288959
81.150000 -2.288959 -2.288959
81.200000 -2.288958 -2.288959
81.250000 -2.288958 -2.288959
81.300000 -2.288958 -2.288959
81.350000 -2.288957 -2.288959
81.400000 -2.288957 -2.288959
81.450000 -2.288957 -2.288959
81.500000 -2.288957 -2.288959
81.550000 -2.288957 -2.288959
81.600000 -2.288957 -2.288959
81.650000 -2.288957 -2.288959
81.700000 -2.288957 -2.288959
81.750000 -2.288957 -2.288959
81.800000 -2.288957 -2.288959
81.850000 -2.288957 -2.288959
81.900000 -2.288957 -2.288959
81.950000 -2.288958 -2.288959
82.000000 -2.288958 -2.288959
82.050000 -2.288958 -2.288959
82.100000 -2.288958 -2.288959
82.150000 -2.288959 -2.288959
82.200000 -2.288959 -2.288959
82.250000 -2.288959 -2.288959
82.300000 -2.288959 -2.288959
82.350000 -2.288960 -2.288959
82.400000 -2.288960 -2.288959
82.450000 -2.288960 -2.288959
82.500000 -2.288960 -2.288959
82.550000 -2.288960 -2.288959
82.600000 -2.288960 -2.288959
82.650000 -2.288960 -2.288959
82.700000 -2.288960 -2.288959
82.750000 -2.288960 -2.288959
82.800000 -2.288960 -2.288959
82.850000 -2.288959 -2.288959
82.900000 -2.288959 -2.288959
82.950000 -2.288959 -2.288959
83.000000 -2.288959 -2.288959
83.050000 -2.288959 -2.288959
83.100000 -2.288958 -2.288959
83.150000 -2.288958 -2.288959
83.200000 -2.288958 -2.288959
83.250000 -2.288958 -2.288959
83.300000 -2.288958 -2.288959
83.350000 -2.288958 -2.288959
83.400000 -2.288958 -2.288959
83.450000 -2.288957 -2.288959
83.500000 -2.288957 -2.288959
83.550000 -2.288957 -2.288959
83.600000 -2.288957 -2.288959
83.650000 -2.288957 -2.288959
83.700000 -2.288958 -2.288959
83.750000 -2.288958 -2.288959
83.800000 -2.288958 -2.288959
83.850000 -2.288958 -2.288959
83.900000 -2.288958 -2.288959
83.950000 -2.288958 -2.288959
84.000000 -2.288958 -2.288959
84.050000 -2.288958 -2.288959
84.100000 -2.288959 -2.288959
84.150000 -2.288959 -2.288959
84.200000 -2.288959 -2.288959
84.250000 -2.288959 -2.288959
84.300000 -2.288959 -2.288959
84.350000 -2.288959 -2.288959
84.400000 -2.288959 -2.288959
84.450000 -2.288959 -2.288959
84.500000 -2.288959 -2.288959
84.550000 -2.288959 -2.288959
84.600000 -2.288959 -2.288959
84.650000 -2.288959 -2.288959
84.700000 -2.288959 -2.288959
84.750000 -2.288959 -2.288959
84.800000 -2.288959 -2.288959
84.850000 -2.288959 -2.288959
84.900000 -2.288959 -2.288959
84.950000 -2.288959 -2.288959
85.000000 -2.288959 -2.288959
85.050000 -2.288958 -2.288959
85.100000 -2.288958 -2.288959
85.150000 -2.288958 -2.288959
85.200000 -2.288958 -2.288959
85.250000 -2.288958 -2.288959
85.300000 -2.288958 -2.288959
85.350000 -2.288958 -2.288959
85.400000 -2.288958 -2.288959
85.450000 -2.288958 -2.288959
85.500000 -2.288958 -2.288959
85.550000 -2.288958 -2.288959
85.600000 -2.288958 -2.288959
85.650000 -2.288958 -2.288959
85.700000 -2.288958 -2.288959
85.750000 -2.288958 -2.288959
85.800000 -2.288958 -2.288959
85.850000 -2.288958 -2.288959
85.900000 -2.288958 -2.288959
85.950000 -2.288958 -2.288959
86.000000 -2.288959 -2.288959
86.050000 -2.288959 -2.288959
86.100000 -2.288959 -2.288959
86.150000 -2.288959 -2.288959
86.200000 -2.288959 -2.288959
86.250000 -2.288959 -2.288959
86.300000 -2.288959 -2.288959
86.350000 -2.288959 -2.288959
86.400000 -2.288959 -2.288959
86.450000 -2.288959 -2.288959
86.500000 -2.288959 -2.288959
86.550000 -2.288959 -2.288959
86.600000 -2.288959 -2.288959
86.650000 -2.288959 -2.288959
86.700000 -2.288959 -2.288959
86.750000 -2.288959 -2.288959
86.800000 -2.288959 -2.288959
86.850000 -2.288959 -2.288959
86.900000 -2.288959 -2.288959
86.950000 -2.288959 -2.288959
87.000000 -2.288958 -2.288959
87.050000 -2.288958 -2.288959
87.100000 -2.288958 -2.288959
87.150000 -2.288958 -2.288959
87.200000 -2.288958 -2.288959
87.250000 -2.288958 -2.288959
87.300000 -2.288958 -2.288959
87.350000 -2.288958 -2.288959
87.400000 -2.288958 -2.288959
87.450000 -2.288958 -2.288959
87.500000 -2.288958 -2.288959
87.550000 -2.288958 -2.288959
87.600000 -2.288958 -2.288959
87.650000 -2.288958 -2.288959
87.700000 -2.288958 -2.288959
87.750000 -2.288958 -2.288959
87.800000 -2.288958 -2.288959
87.850000 -2.288958 -2.288959
87.900000 -2.288958 -2.288959
87.950000 -2.288959 -2.288959
88.000000 -2.288959 -2.288959
88.050000 -2.288959 -2.288959
88.100000 -2.288959 -2.288959
88.150000 -2.288959 -2.288959
88.200000 -2.288959 -2.288959
88.250000 -2.288959 -2.288959
88.300000 -2.288959 -2.288959
88.350000 -2.288959 -2.288959
88.400000 -2.288959 -2.288959
88.450000 -2.288959 -2.288959
88.500000 -2.288959 -2.288959
88.550000 -2.288959 -2.288959
88.600000 -2.288959 -2.288959
88.650000 -2.288959 -2.288959
88.700000 -2.288959 -2.288959
88.750000 -2.288959 -2.288959
88.800000 -2.288959 -2.288959
88.850000 -2.288959 -2.288959
88.900000 -2.288959 -2.288959
88.950000 -2.288958 -2.288959
89.000000 -2.288958 -2.288959
89.050000 -2.288958 -2.288959
89.100000 -2.288958 -2.288959
89.150000 -2.288958 -2.288959
89.200000 -2.288958 -2.288959
89.250000 -2.288958 -2.288959
89.300000 -2.288958 -2.288959
89.350000 -2.288958 -2.288959
89.400000 -2.288958 -2.288959
89.450000 -2.288958 -2.288959
89.500000 -2.288958 -2.288959
89.550000 -2.288958 -2.288959
89.600000 -2.288958 -2.288959
89.650000 -2.288958 -2.288959
89.700000 -2.288958 -2.288959
89.750000 -2.288958 -2.288959
89.800000 -2.288958 -2.288959
89.850000 -2.288959 -2.288959
89.900000 -2.288959 -2.288959
89.950000 -2.288959 -2.288959
90.000000 -2.288959 -2.288959
90.050000 -2.288959 -2.288959
90.100000 -2.288959 -2.288959
90.150000 -2.288959 -2.288959
90.200000 -2.288959 -2.288959
90.250000 -2.288959 -2.288959
90.300000 -2.288959 -2.288959
90.350000 -2.288959 -2.288959
90.400000 -2.288959 -2.288959
90.450000 -2.288959 -2.288959
90.500000 -2.288959 -2.288959
90.550000 -2.288959 -2.288959
90.600000 -2.288959 -2.288959
90.650000 -2.288959 -2.288959
90.700000 -2.288959 -2.288959
90.750000 -2.288959 -2.288959
90.800000 -2.288959 -2.288959
90.850000 -2.288959 -2.288959
90.900000 -2.288958 -2.288959
90.950000 -2.288958 -2.288959
91.000000 -2.288958 -2.288959
91.050000 -2.288958 -2.288959
91.100000 -2.288958 -2.288959
91.150000 -2.288958 -2.288959
91.200000 -2.288958 -2.288959
91.250000 -2.288958 -2.288959
91.300000 -2.288958 -2.288959
91.350000 -2.288958 -2.288959
91.400000 -2.288958 -2.288959
91.450000 -2.288958 -2.288959
91.500000 -2.288958 -2.288959
91.550000 -2.288958 -2.288959
91.600000 -2.288958 -2.288959
91.650000 -2.288958 -2.288959
91.700000 -2.288958 -2.288959
91.750000 -2.288958 -2.288959
91.800000 -2.288959 -2.288959
91.850000 -2.288959 -2.288959
91.900000 -2.288959 -2.288959
91.950000 -2.288959 -2.288959
92.000000 -2.288959 -2.288959
92.050000 -2.288959 -2.288959
92.100000 -2.288959 -2.288959
92.150000 -2.288959 -2.288959
92.200000 -2.288959 -2.288959
92.250000 -2.288959 -2.288959
92.300000 -2.288959 -2.288959
92.350000 -2.288959 -2.288959
92.400000 -2.288959 -2.288959
92.450000 -2.288959 -2.288959
92.500000 -2.288959 -2.288959
92.550000 -2.288959 -2.288959
92.600000 -2.288959 -2.288959
92.650000 -2.288959 -2.288959
92.700000 -2.288959 -2.288959
92.750000 -2.288959 -2.288959
92.800000 -2.288959 -2.288959
92.850000 -2.288959 -2.288959
92.900000 -2.288958 -2.288959
92.950000 -2.288958 -2.288959
93.000000 -2.288958 -2.288959
93.050000 -2.288958 -2.288959
93.100000 -2.288958 -2.288959
93.150000 -2.288958 -2.288959
93.200000 -2.288958 -2.288959
93.250000 -2.288958 -2.288959
93.300000 -2.288958 -2.288959
93.350000 -2.288958 -2.288959
93.400000 -2.288958 -2.288959
93.450000 -2.288958 -2.288959
93.500000 -2.288958 -2.288959
93.550000 -2.288958 -2.288959
93.600000 -2.288958 -2.288959
93.650000 -2.288958 -2.288959
93.700000 -2.288959 -2.288959
93.750000 -2.288959 -2.288959
93.800000 -2.288959 -2.288959
93.850000 -2.288959 -2.288959
93.900000 -2.288959 -2.288959
93.950000 -2.288959 -2.288959
94.000000 -2.288959 -2.288959
94.050000 -2.288959 -2.288959
94.100000 -2.288959 -2.288959
94.150000 -2.288959 -2.288959
94.200000 -2.288959 -2.288959
94.250000 -2.288959 -2.288959
94.300000 -2.288959 -2.288959
94.350000 -2.288959 -2.288959
94.400000 -2.288959 -2.288959
94.450000 -2.288959 -2.288959
94.500000 -2.288959 -2.288959
94.550000 -2.288959 -2.288959
94.600000 -2.288959 -2.288959
94.650000 -2.288959 -2.288959
94.700000 -2.288959 -2.288959
94.750000 -2.288959 -2.288959
94.800000 -2.288959 -2.288959
94.850000 -2.288958 -2.288959
94.900000 -2.288958 -2.288959
94.950000 -2.288958 -2.288959
95.000000 -2.288958 -2.288959
95.050000 -2.288958 -2.288959
95.100000 -2.288958 -2.288959
95.150000 -2.288958 -2.288959
95.200000 -2.288958 -2.288959
95.250000 -2.288958 -2.288959
95.300000 -2.288958 -2.288959
95.350000 -2.288958 -2.288959
95.400000 -2.288958 -2.288959
95.450000 -2.288958 -2.288959
95.500000 -2.288958 -2.288959
95.550000 -2.288958 -2.288959
95.600000 -2.288959 -2.288959
95.650000 -2.288959 -2.288959
95.700000 -2.288959 -2.288959
95.750000 -2.288959 -2.288959
95.800000 -2.288959 -2.288959
95.850000 -2.288959 -2.288959
95.900000 -2.288959 -2.288959
95.950000 -2.288959 -2.288959
96.000000 -2.288959 -2.288959
96.050000 -2.288959 -2.288959
96.100000 -2.288959 -2.288959
96.150000 -2.288959 -2.288959
96.200000 -2.288959 -2.288959
96.250000 -2.288959 -2.288959
96.300000 -2.288959 -2.288959
96.350000 -2.288959 -2.288959
96.400000 -2.288959 -2.288959
96.450000 -2.288959 -2.288959
96.500000 -2.288959 -2.288959
96.550000 -2.288959 -2.288959
96.600000 -2.288959 -2.288959
96.650000 -2.288959 -2.288959
96.700000 -2.288959 -2.288959
96.750000 -2.288959 -2.288959
96.800000 -2.288959 -2.288959
96.850000 -2.288958 -2.288959
96.900000 -2.288958 -2.288959
96.950000 -2.288958 -2.288959
97.000000 -2.288958 -2.288959
97.050000 -2.288958 -2.288959
97.100000 -2.288958 -2.288959
97.150000 -2.288958 -2.288959
97.200000 -2.288958 -2.288959
97.250000 -2.288958 -2.288959
97.300000 -2.288958 -2.288959
97.350000 -2.288958 -2.288959
97.400000 -2.288958 -2.288959
97.450000 -2.288958 -2.288959
97.500000 -2.288959 -2.288959
97.550000 -2.288959 -2.288959
97.600000 -2.288959 -2.288959
97.650000 -2.288959 -2.288959
97.700000 -2.288959 -2.288959
97.750000 -2.288959 -2.288959
97.800000 -2.288959 -2.288959
97.850000 -2.288959 -2.288959
97.900000 -2.288959 -2.288959
97.950000 -2.288959 -2.288959
98.000000 -2.288959 -2.288959
98.050000 -2.288959 -2.288959
98.100000 -2.288959 -2.288959
98.150000 -2.288959 -2.288959
98.200000 -2.288959 -2.288959
98.250000 -2.288959 -2.288959
98.300000 -2.288959 -2.288959
98.350000 -2.288959 -2.288959
98.400000 -2.288959 -2.288959
98.450000 -2.288959 -2.288959
98.500000 -2.288959 -2.288959
98.550000 -2.288959 -2.288959
98.600000 -2.288959 -2.288959
98.650000 -2.288959 -2.288959
98.700000 -2.288959 -2.288959
98.750000 -2.288959 -2.288959
98.800000 -2.288959 -2.288959
98.850000 -2.288958 -2.288959
98.900000 -2.288958 -2.288959
98.950000 -2.288958 -2.288959
99.000000 -2.288958 -2.288959
99.050000 -2.288958 -2.288959
99.100000 -2.288958 -2.288959
99.150000 -2.288958 -2.288959
99.200000 -2.288958 -2.288959
99.250000 -2.288958 -2.288959
99.300000 -2.288958 -2.288959
99.350000 -2.288959 -2.288959
99.400000 -2.288959 -2.288959
99.450000 -2.288959 -2.288959
99.500000 -2.288959 -2.288959
99.550000 -2.288959 -2.288959
99.600000 -2.288959 -2.288959
99.650000 -2.288959 -2.288959
99.700000 -2.288959 -2.288959
99.750000 -2.288959 -2.288959
99.800000 -2.288959 -2.288959
99.850000 -2.288959 -2.288959
99.900000 -2.288959 -2.288959
99.950000 -2.288959 -2.288959
100.000000 -2.288959 -2.288959
100.050000 -2.288959 -2.288959
100.100000 -2.288959 -2.288959
100.150000 -2.288959 -2.288959
100.200000 -2.288959 -2.288959
100.250000 -2.288959 -2.288959
100.300000 -2.288959 -2.288959
100.350000 -2.288959 -2.288959
100.400000 -2.288959 -2.288959
100.450000 -2.288959 -2.288959
100.500000 -2.288959 -2.288959
100.550000 -2.288959 -2.288959
100.600000 -2.288959 -2.288959
100.650000 -2.288959 -2.288959
100.700000 -2.288959 -2.288959
100.750000 -2.288959 -2.288959
100.800000 -2.288959 -2.288959
100.850000 -2.288959 -2.288959
100.900000 -2.288959 -2.288959
100.950000 -2.288959 -2.288959
101.000000 -2.288959 -2.288959
101.050000 -2.288959 -2.288959
101.100000 -2.288959 -2.288959
101.150000 -2.288959 -2.288959
101.200000 -2.288959 -2.288959
101.250000 -2.288959 -2.288959
101.300000 -2.288959 -2.288959
101.350000 -2.288959 -2.288959
101.400000 -2.288959 -2.288959
101.450000 -2.288959 -2.288959
101.500000 -2.288959 -2.288959
101.550000 -2.288959 -2.288959
101.600000 -2.288959 -2.288959
101.650000 -2.288959 -2.288959
101.700000 -2.288959 -2.288959
101.750000 -2.288959 -2.288959
101.800000 -2.288959 -2.288959
101.850000 -2.288959 -2.288959
101.900000 -2.288959 -2.288959
101.950000 -2.288959 -2.288959
102.000000 -2.288959 -2.288959
102.050000 -2.288959 -2.288959
102.100000 -2.288959 -2.288959
102.150000 -2.288959 -2.288959
102.200000 -2.288959 -2.288959
102.250000 -2.288959 -2.288959
102.300000 -2.288959 -2.288959
102.350000 -2.288959 -2.288959
102.400000 -2.288959 -2.288959
102.450000 -2.288959 -2.288959
102.500000 -2.288959 -2.288959
102.550000 -2.288959 -2.288959
102.600000 -2.288959 -2.288959
102.650000 -2.288959 -2.288959
102.700000 -2.288959 -2.288959
102.750000 -2.288959 -2.288959
102.800000 -2.288959 -2.288959
102.850000 -2.288959 -2.288959
102.900000 -2.288959 -2.288959
102.950000 -2.288959 -2.288959
103.000000 -2.288959 -2.288959
103.050000 -2.288959 -2.288959
103.100000 -2.288959 -2.288959
103.150000 -2.288959 -2.288959
103.200000 -2.288959 -2.288959
103.250000 -2.288959 -2.288959
103.300000 -2.288959 -2.288959
103.350000 -2.288959 -2.288959
103.400000 -2.288959 -2.288959
103.450000 -2.288959 -2.288959
103.500000 -2.288959 -2.288959
103.550000 -2.288959 -2.288959
103.600000 -2.288959 -2.288959
103.650000 -2.288959 -2.288959
103.700000 -2.288959 -2.288959
103.750000 -2.288959 -2.288959
103.800000 -2.288959 -2.288959
103.850000 -2.288959 -2.288959
103.900000 -2.288959 -2.288959
103.950000 -2.288959 -2.288959
104.000000 -2.288959 -2.288959
104.050000 -2.288959 -2.288959
104.100000 -2.288959 -2.288959
104.150000 -2.288959 -2.288959
104.200000 -2.288959 -2.288959
104.250000 -2.288959 -2.288959
104.300000 -2.288959 -2.288959
104.350000 -2.288959 -2.288959
104.400000 -2.288959 -2.288959
104.450000 -2.288959 -2.288959
104.500000 -2.288959 -2.288959
104.550000 -2.288959 -2.288959
104.600000 -2.288959 -2.288959
104.650000 -2.288959 -2.288959
104.700000 -2.288959 -2.288959
104.750000 -2.288959 -2.288959
104.800000 -2.288959 -2.288959
104.850000 -2.288959 -2.288959
104.900000 -2.288959 -2.288959
104.950000 -2.288959 -2.288959
105.000000 -2.288959 -2.288959
105.050000 -2.288959 -2.288959
105.100000 -2.288959 -2.288959
105.150000 -2.288959 -2.288959
105.200000 -2.288959 -2.288959
105.250000 -2.288959 -2.288959
105.300000 -2.288959 -2.288959
105.350000 -2.288959 -2.288959
105.400000 -2.288959 -2.288959
105.450000 -2.288959 -2.288959
105.500000 -2.288959 -2.288959
105.550000 -2.288959 -2.288959
105.600000 -2.288959 -2.288959
105.650000 -2.288959 -2.288959
105.700000 -2.288959 -2.288959
105.750000 -2.288959 -2.288959
105.800000 -2.288959 -2.288959
105.850000 -2.288959 -2.288959
105.900000 -2.288959 -2.288959
105.950000 -2.288959 -2.288959
106.000000 -2.288959 -2.288959
106.050000 -2.288959 -2.288959
106.100000 -2.288959 -2.288959
106.150000 -2.288959 -2.288959
106.200000 -2.288959 -2.288959
106.250000 -2.288959 -2.288959
106.300000 -2.288959 -2.288959
106.350000 -2.288959 -2.288959
106.400000 -2.288959 -2.288959
106.450000 -2.288959 -2.288959
106.500000 -2.288959 -2.288959
106.550000 -2.288959 -2.288959
106.600000 -2.288959 -2.288959
106.650000 -2.288959 -2.288959
106.700000 -2.288959 -2.288959
106.750000 -2.288959 -2.288959
106.800000 -2.288959 -2.288959
106.850000 -2.288959 -2.288959
106.900000 -2.288959 -2.288959
106.950000 -2.288959 -2.288959
107.000000 -2.288959 -2.288959
107.050000 -2.288959 -2.288959
107.100000 -2.288959 -2.288959
107.150000 -2.288959 -2.288959
107.200000 -2.288959 -2.288959
107.250000 -2.288959 -2.288959
107.300000 -2.288959 -2.288959
107.350000 -2.288959 -2.288959
107.400000 -2.288959 -2.288959
107.450000 -2.288959 -2.288959
107.500000 -2.288959 -2.288959
107.550000 -2.288959 -2.288959
107.600000 -2.288959 -2.288959
107.650000 -2.288959 -2.288959
107.700000 -2.288959 -2.288959
107.750000 -2.288959 -2.288959
107.800000 -2.288959 -2.288959
107.850000 -2.288959 -2.288959
107.900000 -2.288959 -2.288959
107.950000 -2.288959 -2.288959
108.000000 -2.288959 -2.288959
108.050000 -2.288959 -2.288959
108.100000 -2.288959 -2.288959
108.150000 -2.288959 -2.288959
108.200000 -2.288959 -2.288959
108.250000 -2.288959 -2.288959
108.300000 -2.288959 -2.288959
108.350000 -2.288959 -2.288959
108.400000 -2.288959 -2.288959
108.450000 -2.288959 -2.288959
108.500000 -2.288959 -2.288959
108.550000 -2.288959 -2.288959
108.600000 -2.288959 -2.288959
108.650000 -2.288959 -2.288959
108.700000 -2.288959 -2.288959
108.750000 -2.288959 -2.288959
108.800000 -2.288959 -2.288959
108.850000 -2.288959 -2.288959
108.900000 -2.288959 -2.288959
108.950000 -2.288959 -2.288959
109.000000 -2.288959 -2.288959
109.050000 -2.288959 -2.288959
109.100000 -2.288959 -2.288959
109.150000 -2.288959 -2.288959
109.200000 -2.288959 -2.288959
109.250000 -2.288959 -2.288959
109.300000 -2.288959 -2.288959
109.350000 -2.288959 -2.288959
109.400000 -2.288959 -2.288959
109.450000 -2.288959 -2.288959
109.500000 -2.288959 -2.288959
109.550000 -2.288959 -2.288959
109.600000 -2.288959 -2.288959
109.650000 -2.288959 -2.288959
109.700000 -2.288959 -2.288959
109.750000 -2.288959 -2.288959
109.800000 -2.288959 -2.288959
109.850000 -2.288959 -2.288959
109.900000 -2.288959 -2.288959
109.950000 -2.288959 -2.288959
110.000000 -2.288959 -2.288959
110.050000 -2.288959 -2.288959
110.100000 -2.288959 -2.288959
110.150000 -2.288959 -2.288959
110.200000 -2.288959 -2.288959
110.250000 -2.288959 -2.288959
110.300000 -2.288959 -2.288959
110.350000 -2.288959 -2.288959
110.400000 -2.288959 -2.288959
110.450000 -2.288959 -2.288959
110.500000 -2.288959 -2.288959
110.550000 -2.288959 -2.288959
110.600000 -2.288959 -2.288959
110.650000 -2.288959 -2.288959
110.700000 -2.288959 -2.288959
110.750000 -2.288959 -2.288959
110.800000 -2.288959 -2.288959
110.850000 -2.288959 -2.288959
110.900000 -2.288959 -2.288959
110.950000 -2.288959 -2.288959
111.000000 -2.288959 -2.288959
111.050000 -2.288959 -2.288959
111.100000 -2.288959 -2.288959
111.150000 -2.288959 -2.288959
111.200000 -2.288959 -2.288959
111.250000 -2.288959 -2.288959
111.300000 -2.288959 -2.288959
111.350000 -2.288959 -2.288959
111.400000 -2.288959 -2.288959
111.450000 -2.288959 -2.288959
111.500000 -2.288959 -2.288959
111.550000 -2.288959 -2.288959
111.600000 -2.288959 -2.288959
111.650000 -2.288959 -2.288959
111.700000 -2.288959 -2.288959
111.750000 -2.288959 -2.288959
111.800000 -2.288959 -2.288959
111.850000 -2.288959 -2.288959
111.900000 -2.288959 -2.288959
111.950000 -2.288959 -2.288959
112.000000 -2.288959 -2.288959
112.050000 -2.288959 -2.288959
112.100000 -2.288959 -2.288959
112.150000 -2.288959 -2.288959
112.200000 -2.288959 -2.288959
112.250000 -2.288959 -2.288959
112.300000 -2.288959 -2.288959
112.350000 -2.288959 -2.288959
112.400000 -2.288959 -2.288959
112.450000 -2.288959 -2.288959
112.500000 -2.288959 -2.288959
112.550000 -2.288959 -2.288959
112.600000 -2.288959 -2.288959
112.650000 -2.288959 -2.288959
112.700000 -2.288959 -2.288959
112.750000 -2.288959 -2.288959
112.800000 -2.288959 -2.288959
112.850000 -2.288959 -2.288959
112.900000 -2.288959 -2.288959
112.950000 -2.288959 -2.288959
113.000000 -2.288959 -2.288959
113.050000 -2.288959 -2.288959
113.100000 -2.288959 -2.288959
113.150000 -2.288959 -2.288959
113.200000 -2.288959 -2.288959
113.250000 -2.288959 -2.288959
113.300000 -2.288959 -2.288959
113.350000 -2.288959 -2.288959
113.400000 -2.288959 -2.288959
113.450000 -2.288959 -2.288959
113.500000 -2.288959 -2.288959
113.550000 -2.288959 -2.288959
113.600000 -2.288959 -2.288959
113.650000 -2.288959 -2.288959
113.700000 -2.288959 -2.288959
113.750000 -2.288959 -2.288959
113.800000 -2.288959 -2.288959
113.850000 -2.288959 -2.288959
113.900000 -2.288959 -2.288959
113.950000 -2.288959 -2.288959
114.000000 -2.288959 -2.288959
114.050000 -2.288959 -2.288959
114.100000 -2.288959 -2.288959
114.150000 -2.288959 -2.288959
114.200000 -2.288959 -2.288959
114.250000 -2.288959 -2.288959
114.300000 -2.288959 -2.288959
114.350000 -2.288959 -2.288959
114.400000 -2.288959 -2.288959
114.450000 -2.288959 -2.288959
114.500000 -2.288959 -2.288959
114.550000 -2.288959 -2.288959
114.600000 -2.288959 -2.288959
114.650000 -2.288959 -2.288959
114.700000 -2.288959 -2.288959
114.750000 -2.288959 -2.288959
114.800000 -2.288959 -2.288959
114.850000 -2.288959 -2.288959
114.900000 -2.288959 -2.288959
114.950000 -2.288959 -2.288959
115.000000 -2.288959 -2.288959
115.050000 -2.288959 -2.288959
115.100000 -2.288959 -2.288959
115.150000 -2.288959 -2.288959
115.200000 -2.288959 -2.288959
115.250000 -2.288959 -2.288959
115.300000 -2.288959 -2.288959
115.350000 -2.288959 -2.288959
115.400000 -2.288959 -2.288959
115.450000 -2.288959 -2.288959
115.500000 -2.288959 -2.288959
115.550000 -2.288959 -2.288959
115.600000 -2.288959 -2.288959
115.650000 -2.288959 -2.288959
115.700000 -2.288959 -2.288959
115.750000 -2.288959 -2.288959
115.800000 -2.288959 -2.288959
115.850000 -2.288959 -2.288959
115.900000 -2.288959 -2.288959
115.950000 -2.288959 -2.288959
116.000000 -2.288959 -2.288959
116.050000 -2.288959 -2.288959
116.100000 -2.288959 -2.288959
116.150000 -2.288959 -2.288959
116.200000 -2.288959 -2.288959
116.250000 -2.288959 -2.288959
116.300000 -2.288959 -2.288959
116.350000 -2.288959 -2.288959
116.400000 -2.288959 -2.288959
116.450000 -2.288959 -2.288959
116.500000 -2.288959 -2.288959
116.550000 -2.288959 -2.288959
116.600000 -2.288959 -2.288959
116.650000 -2.288959 -2.288959
116.700000 -2.288959 -2.288959
116.750000 -2.288959 -2.288959
116.800000 -2.288959 -2.288959
116.850000 -2.288959 -2.288959
116.900000 -2.288959 -2.288959
116.950000 -2.288959 -2.288959
117.000000 -2.288959 -2.288959
117.050000 -2.288959 -2.288959
117.100000 -2.288959 -2.288959
117.150000 -2.288959 -2.288959
117.200000 -2.288959 -2.288959
117.250000 -2.288959 -2.288959
117.300000 -2.288959 -2.288959
117.350000 -2.288959 -2.288959
117.400000 -2.288959 -2.288959
117.450000 -2.288959 -2.288959
117.500000 -2.288959 -2.288959
117.550000 -2.288959 -2.288959
117.600000 -2.288959 -2.288959
117.650000 -2.288959 -2.288959
117.700000 -2.288959 -2.288959
117.750000 -2.288959 -2.288959
117.800000 -2.288959 -2.288959
117.850000 -2.288959 -2.288959
117.900000 -2.288959 -2.288959
117.950000 -2.288959 -2.288959
118.000000 -2.288959 -2.288959
118.050000 -2.288959 -2.288959
118.100000 -2.288959 -2.288959
118.150000 -2.288959 -2.288959
118.200000 -2.288959 -2.288959
118.250000 -2.288959 -2.288959
118.300000 -2.288959 -2.288959
118.350000 -2.288959 -2.288959
118.400000 -2.288959 -2.288959
118.450000 -2.288959 -2.288959
118.500000 -2.288959 -2.288959
118.550000 -2.288959 -2.288959
118.600000 -2.288959 -2.288959
118.650000 -2.288959 -2.288959
118.700000 -2.288959 -2.288959
118.750000 -2.288959 -2.288959
118.800000 -2.288959 -2.288959
118.850000 -2.288959 -2.288959
118.900000 -2.288959 -2.288959
118.950000 -2.288959 -2.288959
119.000000 -2.288959 -2.288959
119.050000 -2.288959 -2.288959
119.100000 -2.288959 -2.288959
119.150000 -2.288959 -2.288959
119.200000 -2.288959 -2.288959
119.250000 -2.288959 -2.288959
119.300000 -2.288959 -2.288959
119.350000 -2.288959 -2.288959
119.400000 -2.288959 -2.288959
119.450000 -2.288959 -2.288959
119.500000 -2.288959 -2.288959
119.550000 -2.288959 -2.288959
119.600000 -2.288959 -2.288959
119.650000 -2.288959 -2.288959
119.700000 -2.288959 -2.288959
119.750000 -2.288959 -2.288959
119.800000 -2.288959 -2.288959
119.850000 -2.288959 -2.288959
119.900000 -2.288959 -2.288959
119.950000 -2.288959 -2.288959
120.000000 -2.288959 -2.288959
120.050000 -2.288959 -2.288959
120.100000 -2.288959 -2.288959
120.150000 -2.288959 -2.288959
120.200000 -2.288959 -2.288959
120.250000 -2.288959 -2.288959
120.300000 -2.288959 -2.288959
120.350000 -2.288959 -2.288959
120.400000 -2.288959 -2.288959
120.450000 -2.288959 -2.288959
120.500000 -2.288959 -2.288959
120.550000 -2.288959 -2.288959
120.600000 -2.288959 -2.288959
120.650000 -2.288959 -2.288959
120.700000 -2.288959 -2.288959
120.750000 -2.288959 -2.288959
120.800000 -2.288959 -2.288959
120.850000 -2.288959 -2.288959
120.900000 -2.288959 -2.288959
120.950000 -2.288959 -2.288959
121.000000 -2.288959 -2.288959
121.050000 -2.288959 -2.288959
121.100000 -2.288959 -2.288959
121.150000 -2.288959 -2.288959
121.200000 -2.288959 -2.288959
121.250000 -2.288959 -2.288959
121.300000 -2.288959 -2.288959
121.350000 -2.288959 -2.288959
121.400000 -2.288959 -2.288959
121.450000 -2.288959 -2.288959
121.500000 -2.288959 -2.288959
121.550000 -2.288959 -2.288959
121.600000 -2.288959 -2.288959
121.650000 -2.288959 -2.288959
121.700000 -2.288959 -2.288959
121.750000 -2.288959 -2.288959
121.800000 -2.288959 -2.288959
121.850000 -2.288959 -2.288959
121.900000 -2.288959 -2.288959
121.950000 -2.288959 -2.288959
122.000000 -2.288959 -2.288959
122.050000 -2.288959 -2.288959
122.100000 -2.288959 -2.288959
122.150000 -2.288959 -2.288959
122.200000 -2.288959 -2.288959
122.250000 -2.288959 -2.288959
122.300000 -2.288959 -2.288959
122.350000 -2.288959 -2.288959
122.400000 -2.288959 -2.288959
122.450000 -2.288959 -2.288959
122.500000 -2.288959 -2.288959
122.550000 -2.288959 -2.288959
122.600000 -2.288959 -2.288959
122.650000 -2.288959 -2.288959
122.700000 -2.288959 -2.288959
122.750000 -2.288959 -2.288959
122.800000 -2.288959 -2.288959
122.850000 -2.288959 -2.288959
122.900000 -2.288959 -2.288959
122.950000 -2.288959 -2.288959
123.000000 -2.288959 -2.288959
123.050000 -2.288959 -2.288959
123.100000 -2.288959 -2.288959
123.150000 -2.288959 -2.288959
123.200000 -2.288959 -2.288959
123.250000 -2.288959 -2.288959
123.300000 -2.288959 -2.288959
123.350000 -2.288959 -2.288959
123.400000 -2.288959 -2.288959
123.450000 -2.288959 -2.288959
123.500000 -2.288959 -2.288959
123.550000 -2.288959 -2.288959
123.600000 -2.288959 -2.288959
123.650000 -2.288959 -2.288959
123.700000 -2.288959 -2.288959
123.750000 -2.288959 -2.288959
123.800000 -2.288959 -2.288959
123.850000 -2.288959 -2.288959
123.900000 -2.288959 -2.288959
123.950000 -2.288959 -2.288959
124.000000 -2.288959 -2.288959
124.050000 -2.288959 -2.288959
124.100000 -2.288959 -2.288959
124.150000 -2.288959 -2.288959
124.200000 -2.288959 -2.288959
124.250000 -2.288959 -2.288959
124.300000 -2.288959 -2.288959
124.350000 -2.288959 -2.288959
124.400000 -2.288959 -2.288959
124.450000 -2.288959 -2.288959
124.500000 -2.288959 -2.288959
124.550000 -2.288959 -2.288959
124.600000 -2.288959 -2.288959
124.650000 -2.288959 -2.288959
124.700000 -2.288959 -2.288959
124.750000 -2.288959 -2.288959
124.800000 -2.288959 -2.288959
124.850000 -2.288959 -2.288959
124.900000 -2.288959 -2.288959
124.950000 -2.288959 -2.288959
125.000000 -2.288959 -2.288959
125.050000 -2.288959 -2.288959
125.100000 -2.288959 -2.288959
125.150000 -2.288959 -2.288959
125.200000 -2.288959 -2.288959
125.250000 -2.288959 -2.288959
125.300000 -2.288959 -2.288959
125.350000 -2.288959 -2.288959
125.400000 -2.288959 -2.288959
125.450000 -2.288959 -2.288959
125.500000 -2.288959 -2.288959
125.550000 -2.288959 -2.288959
125.600000 -2.288959 -2.288959
125.650000 -2.288959 -2.288959
125.700000 -2.288959 -2.288959
125.750000 -2.288959 -2.288959
125.800000 -2.288959 -2.288959
125.850000 -2.288959 -2.288959
125.900000 -2.288959 -2.288959
125.950000 -2.288959 -2.288959
126.000000 -2.288959 -2.288959
126.050000 -2.288959 -2.288959
126.100000 -2.288959 -2.288959
126.150000 -2.288959 -2.288959
126.200000 -2.288959 -2.288959
126.250000 -2.288959 -2.288959
126.300000 -2.288959 -2.288959
126.350000 -2.288959 -2.288959
126.400000 -2.288959 -2.288959
126.450000 -2.288959 -2.288959
126.500000 -2.288959 -2.288959
126.550000 -2.288959 -2.288959
126.600000 -2.288959 -2.288959
126.650000 -2.288959 -2.288959
126.700000 -2.288959 -2.288959
126.750000 -2.288959 -2.288959
126.800000 -2.288959 -2.288959
126.850000 -2.288959 -2.288959
126.900000 -2.288959 -2.288959
126.950000 -2.288959 -2.288959
127.000000 -2.288959 -2.288959
127.050000 -2.288959 -2.288959
127.100000 -2.288959 -2.288959
127.150000 -2.288959 -2.288959
127.200000 -2.288959 -2.288959
127.250000 -2.288959 -2.288959
127.300000 -2.288959 -2.288959
127.350000 -2.288959 -2.288959
127.400000 -2.288959 -2.288959
127.450000 -2.288959 -2.288959
127.500000 -2.288959 -2.288959
127.550000 -2.288959 -2.288959
127.600000 -2.288959 -2.288959
127.650000 -2.288959 -2.288959
127.700000 -2.288959 -2.288959
127.750000 -2.288959 -2.288959
127.800000 -2.288959 -2.288959
127.850000 -2.288959 -2.288959
127.900000 -2.288959 -2.288959
127.950000 -2.288959 -2.288959
128.000000 -2.288959 -2.288959
128.050000 -2.288959 -2.288959
128.100000 -2.288959 -2.288959
128.150000 -2.288959 -2.288959
128.200000 -2.288959 -2.288959
128.250000 -2.288959 -2.288959
128.300000 -2.288959 -2.288959
128.350000 -2.288959 -2.288959
128.400000 -2.288959 -2.288959
128.450000 -2.288959 -2.288959
128.500000 -2.288959 -2.288959
128.550000 -2.288959 -2.288959
128.600000 -2.288959 -2.288959
128.650000 -2.288959 -2.288959
128.700000 -2.288959 -2.288959
128.750000 -2.288959 -2.288959
128.800000 -2.288959 -2.288959
128.850000 -2.288959 -2.288959
128.900000 -2.288959 -2.288959
128.950000 -2.288959 -2.288959
129.000000 -2.288959 -2.288959
129.050000 -2.288959 -2.288959
129.100000 -2.288959 -2.288959
129.150000 -2.288959 -2.288959
129.200000 -2.288959 -2.288959
129.250000 -2.288959 -2.288959
129.300000 -2.288959 -2.288959
129.350000 -2.288959 -2.288959
129.400000 -2.288959 -2.288959
129.450000 -2.288959 -2.288959
129.500000 -2.288959 -2.288959
129.550000 -2.288959 -2.288959
129.600000 -2.288959 -2.288959
129.650000 -2.288959 -2.288959
129.700000 -2.288959 -2.288959
129.750000 -2.288959 -2.288959
129.800000 -2.288959 -2.288959
129.850000 -2.288959 -2.288959
129.900000 -2.288959 -2.288959
129.950000 -2.288959 -2.288959
130.000000 -2.288959 -2.288959
130.050000 -2.288959 -2.288959
130.100000 -2.288959 -2.288959
130.150000 -2.288959 -2.288959
130.200000 -2.288959 -2.288959
130.250000 -2.288959 -2.288959
130.300000 -2.288959 -2.288959
130.350000 -2.288959 -2.288959
130.400000 -2.288959 -2.288959
130.450000 -2.288959 -2.288959
130.500000 -2.288959 -2.288959
130.550000 -2.288959 -2.288959
130.600000 -2.288959 -2.288959
130.650000 -2.288959 -2.288959
130.700000 -2.288959 -2.288959
130.750000 -2.288959 -2.288959
130.800000 -2.288959 -2.288959
130.850000 -2.288959 -2.288959
130.900000 -2.288959 -2.288959
130.950000 -2.288959 -2.288959
131.000000 -2.288959 -2.288959
131.050000 -2.288959 -2.288959
131.100000 -2.288959 -2.288959
131.150000 -2.288959 -2.288959
131.200000 -2.288959 -2.288959
131.250000 -2.288959 -2.288959
131.300000 -2.288959 -2.288959
131.350000 -2.288959 -2.288959
131.400000 -2.288959 -2.288959
131.450000 -2.288959 -2.288959
131.500000 -2.288959 -2.288959
131.550000 -2.288959 -2.288959
131.600000 -2.288959 -2.288959
131.650000 -2.288959 -2.288959
131.700000 -2.288959 -2.288959
131.750000 -2.288959 -2.288959
131.800000 -2.288959 -2.288959
131.850000 -2.288959 -2.288959
131.900000 -2.288959 -2.288959
131.950000 -2.288959 -2.288959
132.000000 -2.288959 -2.288959
132.050000 -2.288959 -2.288959
132.100000 -2.288959 -2.288959
132.150000 -2.288959 -2.288959
132.200000 -2.288959 -2.288959
132.250000 -2.288959 -2.288959
132.300000 -2.288959 -2.288959
132.350000 -2.288959 -2.288959
132.400000 -2.288959 -2.288959
132.450000 -2.288959 -2.288959
132.500000 -2.288959 -2.288959
132.550000 -2.288959 -2.288959
132.600000 -2.288959 -2.288959
132.650000 -2.288959 -2.288959
132.700000 -2.288959 -2.288959
132.750000 -2.288959 -2.288959
132.800000 -2.288959 -2.288959
132.850000 -2.288959 -2.288959
132.900000 -2.288959 -2.288959
132.950000 -2.288959 -2.288959
133.000000 -2.288959 -2.288959
133.050000 -2.288959 -2.288959
133.100000 -2.288959 -2.288959
133.150000 -2.288959 -2.288959
133.200000 -2.288959 -2.288959
133.250000 -2.288959 -2.288959
133.300000 -2.288959 -2.288959
133.350000 -2.288959 -2.288959
133.400000 -2.288959 -2.288959
133.450000 -2.288959 -2.288959
133.500000 -2.288959 -2.288959
133.550000 -2.288959 -2.288959
133.600000 -2.288959 -2.288959
133.650000 -2.288959 -2.288959
133.700000 -2.288959 -2.288959
133.750000 -2.288959 -2.288959
133.800000 -2.288959 -2.288959
133.850000 -2.288959 -2.288959
133.900000 -2.288959 -2.288959
133.950000 -2.288959 -2.288959
134.000000 -2.288959 -2.288959
134.050000 -2.288959 -2.288959
134.100000 -2.288959 -2.288959
134.150000 -2.288959 -2.288959
134.200000 -2.288959 -2.288959
134.250000 -2.288959 -2.288959
134.300000 -2.288959 -2.288959
134.350000 -2.288959 -2.288959
134.400000 -2.288959 -2.288959
134.450000 -2.288959 -2.288959
134.500000 -2.288959 -2.288959
134.550000 -2.288959 -2.288959
134.600000 -2.288959 -2.288959
134.650000 -2.288959 -2.288959
134.700000 -2.288959 -2.288959
134.750000 -2.288959 -2.288959
134.800000 -2.288959 -2.288959
134.850000 -2.288959 -2.288959
134.900000 -2.288959 -2.288959
134.950000 -2.288959 -2.288959
135.000000 -2.288959 -2.288959
135.050000 -2.288959 -2.288959
135.100000 -2.288959 -2.288959
135.150000 -2.288959 -2.288959
135.200000 -2.288959 -2.288959
135.250000 -2.288959 -2.288959
135.300000 -2.288959 -2.288959
135.350000 -2.288959 -2.288959
135.400000 -2.288959 -2.288959
135.450000 -2.288959 -2.288959
135.500000 -2.288959 -2.288959
135.550000 -2.288959 -2.288959
135.600000 -2.288959 -2.288959
135.650000 -2.288959 -2.288959
135.700000 -2.288959 -2.288959
135.750000 -2.288959 -2.288959
135.800000 -2.288959 -2.288959
135.850000 -2.288959 -2.288959
135.900000 -2.288959 -2.288959
135.950000 -2.288959 -2.288959
136.000000 -2.288959 -2.288959
136.050000 -2.288959 -2.288959
136.100000 -2.288959 -2.288959
136.150000 -2.288959 -2.288959
136.200000 -2.288959 -2.288959
136.250000 -2.288959 -2.288959
136.300000 -2.288959 -2.288959
136.350000 -2.288959 -2.288959
136.400000 -2.288959 -2.288959
136.450000 -2.288959 -2.288959
136.500000 -2.288959 -2.288959
136.550000 -2.288959 -2.288959
136.600000 -2.288959 -2.288959
136.650000 -2.288959 -2.288959
136.700000 -2.288959 -2.288959
136.750000 -2.288959 -2.288959
136.800000 -2.288959 -2.288959
136.850000 -2.288959 -2.288959
136.900000 -2.288959 -2.288959
136.950000 -2.288959 -2.288959
137.000000 -2.288959 -2.288959
137.050000 -2.288959 -2.288959
137.100000 -2.288959 -2.288959
137.150000 -2.288959 -2.288959
137.200000 -2.288959 -2.288959
137.250000 -2.288959 -2.288959
137.300000 -2.288959 -2.288959
137.350000 -2.288959 -2.288959
137.400000 -2.288959 -2.288959
137.450000 -2.288959 -2.288959
137.500000 -2.288959 -2.288959
137.550000 -2.288959 -2.288959
137.600000 -2.288959 -2.288959
137.650000 -2.288959 -2.288959
137.700000 -2.288959 -2.288959
137.750000 -2.288959 -2.288959
137.800000 -2.288959 -2.288959
137.850000 -2.288959 -2.288959
137.900000 -2.288959 -2.288959
137.950000 -2.288959 -2.288959
138.000000 -2.288959 -2.288959
138.050000 -2.288959 -2.288959
138.100000 -2.288959 -2.288959
138.150000 -2.288959 -2.288959
138.200000 -2.288959 -2.288959
138.250000 -2.288959 -2.288959
138.300000 -2.288959 -2.288959
138.350000 -2.288959 -2.288959
138.400000 -2.288959 -2.288959
138.450000 -2.288959 -2.288959
138.500000 -2.288959 -2.288959
138.550000 -2.288959 -2.288959
138.600000 -2.288959 -2.288959
138.650000 -2.288959 -2.288959
138.700000 -2.288959 -2.288959
138.750000 -2.288959 -2.288959
138.800000 -2.288959 -2.288959
138.850000 -2.288959 -2.288959
138.900000 -2.288959 -2.288959
138.950000 -2.288959 -2.288959
139.000000 -2.288959 -2.288959
139.050000 -2.288959 -2.288959
139.100000 -2.288959 -2.288959
139.150000 -2.288959 -2.288959
139.200000 -2.288959 -2.288959
139.250000 -2.288959 -2.288959
139.300000 -2.288959 -2.288959
139.350000 -2.288959 -2.288959
139.400000 -2.288959 -2.288959
139.450000 -2.288959 -2.288959
139.500000 -2.288959 -2.288959
139.550000 -2.288959 -2.288959
139.600000 -2.288959 -2.288959
139.650000 -2.288959 -2.288959
139.700000 -2.288959 -2.288959
139.750000 -2.288959 -2.288959
139.800000 -2.288959 -2.288959
139.850000 -2.288959 -2.288959
139.900000 -2.288959 -2.288959
139.950000 -2.288959 -2.288959
140.000000 -2.288959 -2.288959
140.050000 -2.288959 -2.288959
140.100000 -2.288959 -2.288959
140.150000 -2.288959 -2.288959
140.200000 -2.288959 -2.288959
140.250000 -2.288959 -2.288959
140.300000 -2.288959 -2.288959
140.350000 -2.288959 -2.288959
140.400000 -2.288959 -2.288959
140.450000 -2.288959 -2.288959
140.500000 -2.288959 -2.288959
140.550000 -2.288959 -2.288959
140.600000 -2.288959 -2.288959
140.650000 -2.288959 -2.288959
140.700000 -2.288959 -2.288959
140.750000 -2.288959 -2.288959
140.800000 -2.288959 -2.288959
140.850000 -2.288959 -2.288959
140.900000 -2.288959 -2.288959
140.950000 -2.288959 -2.288959
141.000000 -2.288959 -2.288959
141.050000 -2.288959 -2.288959
141.100000 -2.288959 -2.288959
141.150000 -2.288959 -2.288959
141.200000 -2.288959 -2.288959
141.250000 -2.288959 -2.288959
141.300000 -2.288959 -2.288959
141.350000 -2.288959 -2.288959
141.400000 -2.288959 -2.288959
141.450000 -2.288959 -2.288959
141.500000 -2.288959 -2.288959
141.550000 -2.288959 -2.288959
141.600000 -2.288959 -2.288959
141.650000 -2.288959 -2.288959
141.700000 -2.288959 -2.288959
141.750000 -2.288959 -2.288959
141.800000 -2.288959 -2.288959
141.850000 -2.288959 -2.288959
141.900000 -2.288959 -2.288959
141.950000 -2.288959 -2.288959
142.000000 -2.288959 -2.288959
142.050000 -2.288959 -2.288959
142.100000 -2.288959 -2.288959
142.150000 -2.288959 -2.288959
142.200000 -2.288959 -2.288959
142.250000 -2.288959 -2.288959
142.300000 -2.288959 -2.288959
142.350000 -2.288959 -2.288959
142.400000 -2.288959 -2.288959
142.450000 -2.288959 -2.288959
142.500000 -2.288959 -2.288959
142.550000 -2.288959 -2.288959
142.600000 -2.288959 -2.288959
142.650000 -2.288959 -2.288959
142.700000 -2.288959 -2.288959
142.750000 -2.288959 -2.288959
142.800000 -2.288959 -2.288959
142.850000 -2.288959 -2.288959
142.900000 -2.288959 -2.288959
142.950000 -2.288959 -2.288959
143.000000 -2.288959 -2.288959
143.050000 -2.288959 -2.288959
143.100000 -2.288959 -2.288959
143.150000 -2.288959 -2.288959
143.200000 -2.288959 -2.288959
143.250000 -2.288959 -2.288959
143.300000 -2.288959 -2.288959
143.350000 -2.288959 -2.288959
143.400000 -2.288959 -2.288959
143.450000 -2.288959 -2.288959
143.500000 -2.288959 -2.288959
143.550000 -2.288959 -2.288959
143.600000 -2.288959 -2.288959
143.650000 -2.288959 -2.288959
143.700000 -2.288959 -2.288959
143.750000 -2.288959 -2.288959
143.800000 -2.288959 -2.288959
143.850000 -2.288959 -2.288959
143.900000 -2.288959 -2.288959
143.950000 -2.288959 -2.288959
144.000000 -2.288959 -2.288959
144.050000 -2.288959 -2.288959
144.100000 -2.288959 -2.288959
144.150000 -2.288959 -2.288959
144.200000 -2.288959 -2.288959
144.250000 -2.288959 -2.288959
144.300000 -2.288959 -2.288959
144.350000 -2.288959 -2.288959
144.400000 -2.288959 -2.288959
144.450000 -2.288959 -2.288959
144.500000 -2.288959 -2.288959
144.550000 -2.288959 -2.288959
144.600000 -2.288959 -2.288959
144.650000 -2.288959 -2.288959
144.700000 -2.288959 -2.288959
144.750000 -2.288959 -2.288959
144.800000 -2.288959 -2.288959
144.850000 -2.288959 -2.288959
144.900000 -2.288959 -2.288959
144.950000 -2.288959 -2.288959
145.000000 -2.288959 -2.288959
145.050000 -2.288959 -2.288959
145.100000 -2.288959 -2.288959
145.150000 -2.288959 -2.288959
145.200000 -2.288959 -2.288959
145.250000 -2.288959 -2.288959
145.300000 -2.288959 -2.288959
145.350000 -2.288959 -2.288959
145.400000 -2.288959 -2.288959
145.450000 -2.288959 -2.288959
145.500000 -2.288959 -2.288959
145.550000 -2.288959 -2.288959
145.600000 -2.288959 -2.288959
145.650000 -2.288959 -2.288959
145.700000 -2.288959 -2.288959
145.750000 -2.288959 -2.288959
145.800000 -2.288959 -2.288959
145.850000 -2.288959 -2.288959
145.900000 -2.288959 -2.288959
145.950000 -2.288959 -2.288959
146.000000 -2.288959 -2.288959
146.050000 -2.288959 -2.288959
146.100000 -2.288959 -2.288959
146.150000 -2.288959 -2.288959
146.200000 -2.288959 -2.288959
146.250000 -2.288959 -2.288959
146.300000 -2.288959 -2.288959
146.350000 -2.288959 -2.288959
146.400000 -2.288959 -2.288959
146.450000 -2.288959 -2.288959
146.500000 -2.288959 -2.288959
146.550000 -2.288959 -2.288959
146.600000 -2.288959 -2.288959
146.650000 -2.288959 -2.288959
146.700000 -2.288959 -2.288959
146.750000 -2.288959 -2.288959
146.800000 -2.288959 -2.288959
146.850000 -2.288959 -2.288959
146.900000 -2.288959 -2.288959
146.950000 -2.288959 -2.288959
147.000000 -2.288959 -2.288959
147.050000 -2.288959 -2.288959
147.100000 -2.288959 -2.288959
147.150000 -2.288959 -2.288959
147.200000 -2.288959 -2.288959
147.250000 -2.288959 -2.288959
147.300000 -2.288959 -2.288959
147.350000 -2.288959 -2.288959
147.400000 -2.288959 -2.288959
147.450000 -2.288959 -2.288959
147.500000 -2.288959 -2.288959
147.550000 -2.288959 -2.288959
147.600000 -2.288959 -2.288959
147.650000 -2.288959 -2.288959
147.700000 -2.288959 -2.288959
147.750000 -2.288959 -2.288959
147.800000 -2.288959 -2.288959
147.850000 -2.288959 -2.288959
147.900000 -2.288959 -2.288959
147.950000 -2.288959 -2.288959
148.000000 -2.288959 -2.288959
148.050000 -2.288959 -2.288959
148.100000 -2.288959 -2.288959
148.150000 -2.288959 -2.288959
148.200000 -2.288959 -2.288959
148.250000 -2.288959 -2.288959
148.300000 -2.288959 -2.288959
148.350000 -2.288959 -2.288959
148.400000 -2.288959 -2.288959
148.450000 -2.288959 -2.288959
148.500000 -2.288959 -2.288959
148.550000 -2.288959 -2.288959
148.600000 -2.288959 -2.288959
148.650000 -2.288959 -2.288959
148.700000 -2.288959 -2.288959
148.750000 -2.288959 -2.288959
148.800000 -2.288959 -2.288959
148.850000 -2.288959 -2.288959
148.900000 -2.288959 -2.288959
148.950000 -2.288959 -2.288959
149.000000 -2.288959 -2.288959
149.050000 -2.288959 -2.288959
149.100000 -2.288959 -2.288959
149.150000 -2.288959 -2.288959
149.200000 -2.288959 -2.288959
149.250000 -2.288959 -2.288959
149.300000 -2.288959 -2.288959
149.350000 -2.288959 -2.288959
149.400000 -2.288959 -2.288959
149.450000 -2.288959 -2.288959
149.500000 -2.288959 -2.288959
149.550000 -2.288959 -2.288959
149.600000 -2.288959 -2.288959
149.650000 -2.288959 -2.288959
149.700000 -2.288959 -2.288959
149.750000 -2.288959 -2.288959
149.800000 -2.288959 -2.288959
149.850000 -2.288959 -2.288959
149.900000 -2.288959 -2.288959
149.950000 -2.288959 -2.288959
150.000000 -2.288959 -2.288959
150.050000 -2.288959 -2.288959
150.100000 -2.288959 -2.288959
150.150000 -2.288959 -2.288959
150.200000 -2.288959 -2.288959
150.250000 -2.288959 -2.288959
150.300000 -2.288959 -2.288959
150.350000 -2.288959 -2.288959
150.400000 -2.288959 -2.288959
150.450000 -2.288959 -2.288959
150.500000 -2.288959 -2.288959
150.550000 -2.288959 -2.288959
150.600000 -2.288959 -2.288959
150.650000 -2.288959 -2.288959
150.700000 -2.288959 -2.288959
150.750000 -2.288959 -2.288959
150.800000 -2.288959 -2.288959
150.850000 -2.288959 -2.288959
150.900000 -2.288959 -2.288959
150.950000 -2.288959 -2.288959
151.000000 -2.288959 -2.288959
151.050000 -2.288959 -2.288959
151.100000 -2.288959 -2.288959
151.150000 -2.288959 -2.288959
151.200000 -2.288959 -2.288959
151.250000 -2.288959 -2.288959
151.300000 -2.288959 -2.288959
151.350000 -2.288959 -2.288959
151.400000 -2.288959 -2.288959
151.450000 -2.288959 -2.288959
151.500000 -2.288959 -2.288959
151.550000 -2.288959 -2.288959
151.600000 -2.288959 -2.288959
151.650000 -2.288959 -2.288959
151.700000 -2.288959 -2.288959
151.750000 -2.288959 -2.288959
151.800000 -2.288959 -2.288959
151.850000 -2.288959 -2.288959
151.900000 -2.288959 -2.288959
151.950000 -2.288959 -2.288959
152.000000 -2.288959 -2.288959
152.050000 -2.288959 -2.288959
152.100000 -2.288959 -2.288959
152.150000 -2.288959 -2.288959
152.200000 -2.288959 -2.288959
152.250000 -2.288959 -2.288959
152.300000 -2.288959 -2.288959
152.350000 -2.288959 -2.288959
152.400000 -2.288959 -2.288959
152.450000 -2.288959 -2.288959
152.500000 -2.288959 -2.288959
152.550000 -2.288959 -2.288959
152.600000 -2.288959 -2.288959
152.650000 -2.288959 -2.288959
152.700000 -2.288959 -2.288959
152.750000 -2.288959 -2.288959
152.800000 -2.288959 -2.288959
152.850000 -2.288959 -2.288959
152.900000 -2.288959 -2.288959
152.950000 -2.288959 -2.288959
153.000000 -2.288959 -2.288959
153.050000 -2.288959 -2.288959
153.100000 -2.288959 -2.288959
153.150000 -2.288959 -2.288959
153.200000 -2.288959 -2.288959
153.250000 -2.288959 -2.288959
153.300000 -2.288959 -2.288959
153.350000 -2.288959 -2.288959
153.400000 -2.288959 -2.288959
153.450000 -2.288959 -2.288959
153.500000 -2.288959 -2.288959
153.550000 -2.288959 -2.288959
153.600000 -2.288959 -2.288959
153.650000 -2.288959 -2.288959
153.700000 -2.288959 -2.288959
153.750000 -2.288959 -2.288959
153.800000 -2.288959 -2.288959
153.850000 -2.288959 -2.288959
153.900000 -2.288959 -2.288959
153.950000 -2.288959 -2.288959
154.000000 -2.288959 -2.288959
154.050000 -2.288959 -2.288959
154.100000 -2.288959 -2.288959
154.150000 -2.288959 -2.288959
154.200000 -2.288959 -2.288959
154.250000 -2.288959 -2.288959
154.300000 -2.288959 -2.288959
154.350000 -2.288959 -2.288959
154.400000 -2.288959 -2.288959
154.450000 -2.288959 -2.288959
154.500000 -2.288959 -2.288959
154.550000 -2.288959 -2.288959
154.600000 -2.288959 -2.288959
154.650000 -2.288959 -2.288959
154.700000 -2.288959 -2.288959
154.750000 -2.288959 -2.288959
154.800000 -2.288959 -2.288959
154.850000 -2.288959 -2.288959
154.900000 -2.288959 -2.288959
154.950000 -2.288959 -2.288959
155.000000 -2.288959 -2.288959
155.050000 -2.288959 -2.288959
155.100000 -2.288959 -2.288959
155.150000 -2.288959 -2.288959
155.200000 -2.288959 -2.288959
155.250000 -2.288959 -2.288959
155.300000 -2.288959 -2.288959
155.350000 -2.288959 -2.288959
155.400000 -2.288959 -2.288959
155.450000 -2.288959 -2.288959
155.500000 -2.288959 -2.288959
155.550000 -2.288959 -2.288959
155.600000 -2.288959 -2.288959
155.650000 -2.288959 -2.288959
155.700000 -2.288959 -2.288959
155.750000 -2.288959 -2.288959
155.800000 -2.288959 -2.288959
155.850000 -2.288959 -2.288959
155.900000 -2.288959 -2.288959
155.950000 -2.288959 -2.288959
156.000000 -2.288959 -2.288959
156.050000 -2.288959 -2.288959
156.100000 -2.288959 -2.288959
156.150000 -2.288959 -2.288959
156.200000 -2.288959 -2.288959
156.250000 -2.288959 -2.288959
156.300000 -2.288959 -2.288959
156.350000 -2.288959 -2.288959
156.400000 -2.288959 -2.288959
156.450000 -2.288959 -2.288959
156.500000 -2.288959 -2.288959
156.550000 -2.288959 -2.288959
156.600000 -2.288959 -2.288959
156.650000 -2.288959 -2.288959
156.700000 -2.288959 -2.288959
156.750000 -2.288959 -2.288959
156.800000 -2.288959 -2.288959
156.850000 -2.288959 -2.288959
156.900000 -2.288959 -2.288959
156.950000 -2.288959 -2.288959
157.000000 -2.288959 -2.288959
157.050000 -2.288959 -2.288959
157.100000 -2.288959 -2.288959
157.150000 -2.288959 -2.288959
157.200000 -2.288959 -2.288959
157.250000 -2.288959 -2.288959
157.300000 -2.288959 -2.288959
157.350000 -2.288959 -2.288959
157.400000 -2.288959 -2.288959
157.450000 -2.288959 -2.288959
157.500000 -2.288959 -2.288959
157.550000 -2.288959 -2.288959
157.600000 -2.288959 -2.288959
157.650000 -2.288959 -2.288959
157.700000 -2.288959 -2.288959
157.750000 -2.288959 -2.288959
157.800000 -2.288959 -2.288959
157.850000 -2.288959 -2.288959
157.900000 -2.288959 -2.288959
157.950000 -2.288959 -2.288959
158.000000 -2.288959 -2.288959
158.050000 -2.288959 -2.288959
158.100000 -2.288959 -2.288959
158.150000 -2.288959 -2.288959
158.200000 -2.288959 -2.288959
158.250000 -2.288959 -2.288959
158.300000 -2.288959 -2.288959
158.350000 -2.288959 -2.288959
158.400000 -2.288959 -2.288959
158.450000 -2.288959 -2.288959
158.500000 -2.288959 -2.288959
158.550000 -2.288959 -2.288959
158.600000 -2.288959 -2.288959
158.650000 -2.288959 -2.288959
158.700000 -2.288959 -2.288959
158.750000 -2.288959 -2.288959
158.800000 -2.288959 -2.288959
158.850000 -2.288959 -2.288959
158.900000 -2.288959 -2.288959
158.950000 -2.288959 -2.288959
159.000000 -2.288959 -2.288959
159.050000 -2.288959 -2.288959
159.100000 -2.288959 -2.288959
159.150000 -2.288959 -2.288959
159.200000 -2.288959 -2.288959
159.250000 -2.288959 -2.288959
159.300000 -2.288959 -2.288959
159.350000 -2.288959 -2.288959
159.400000 -2.288959 -2.288959
159.450000 -2.288959 -2.288959
159.500000 -2.288959 -2.288959
159.550000 -2.288959 -2.288959
159.600000 -2.288959 -2.288959
159.650000 -2.288959 -2.288959
159.700000 -2.288959 -2.288959
159.750000 -2.288959 -2.288959
159.800000 -2.288959 -2.288959
159.850000 -2.288959 -2.288959
159.900000 -2.288959 -2.288959
159.950000 -2.288959 -2.288959
160.000000 -2.288959 -2.288959
160.050000 -2.288959 -2.288959
160.100000 -2.288959 -2.288959
160.150000 -2.288959 -2.288959
160.200000 -2.288959 -2.288959
160.250000 -2.288959 -2.288959
160.300000 -2.288959 -2.288959
160.350000 -2.288959 -2.288959
160.400000 -2.288959 -2.288959
160.450000 -2.288959 -2.288959
160.500000 -2.288959 -2.288959
160.550000 -2.288959 -2.288959
160.600000 -2.288959 -2.288959
160.650000 -2.288959 -2.288959
160.700000 -2.288959 -2.288959
160.750000 -2.288959 -2.288959
160.800000 -2.288959 -2.288959
160.850000 -2.288959 -2.288959
160.900000 -2.288959 -2.288959
160.950000 -2.288959 -2.288959
161.000000 -2.288959 -2.288959
161.050000 -2.288959 -2.288959
161.100000 -2.288959 -2.288959
161.150000 -2.288959 -2.288959
161.200000 -2.288959 -2.288959
161.250000 -2.288959 -2.288959
161.300000 -2.288959 -2.288959
161.350000 -2.288959 -2.288959
161.400000 -2.288959 -2.288959
161.450000 -2.288959 -2.288959
161.500000 -2.288959 -2.288959
161.550000 -2.288959 -2.288959
161.600000 -2.288959 -2.288959
161.650000 -2.288959 -2.288959
161.700000 -2.288959 -2.288959
161.750000 -2.288959 -2.288959
161.800000 -2.288959 -2.288959
161.850000 -2.288959 -2.288959
161.900000 -2.288959 -2.288959
161.950000 -2.288959 -2.288959
162.000000 -2.288959 -2.288959
162.050000 -2.288959 -2.288959
162.100000 -2.288959 -2.288959
162.150000 -2.288959 -2.288959
162.200000 -2.288959 -2.288959
162.250000 -2.288959 -2.288959
162.300000 -2.288959 -2.288959
162.350000 -2.288959 -2.288959
162.400000 -2.288959 -2.288959
162.450000 -2.288959 -2.288959
162.500000 -2.288959 -2.288959
162.550000 -2.288959 -2.288959
162.600000 -2.288959 -2.288959
162.650000 -2.288959 -2.288959
162.700000 -2.288959 -2.288959
162.750000 -2.288959 -2.288959
162.800000 -2.288959 -2.288959
162.850000 -2.288959 -2.288959
162.900000 -2.288959 -2.288959
162.950000 -2.288959 -2.288959
163.000000 -2.288959 -2.288959
163.050000 -2.288959 -2.288959
163.100000 -2.288959 -2.288959
163.150000 -2.288959 -2.288959
163.200000 -2.288959 -2.288959
163.250000 -2.288959 -2.288959
163.300000 -2.288959 -2.288959
163.350000 -2.288959 -2.288959
163.400000 -2.288959 -2.288959
163.450000 -2.288959 -2.288959
163.500000 -2.288959 -2.288959
163.550000 -2.288959 -2.288959
163.600000 -2.288959 -2.288959
163.650000 -2.288959 -2.288959
163.700000 -2.288959 -2.288959
163.750000 -2.288959 -2.288959
163.800000 -2.288959 -2.288959
163.850000 -2.288959 -2.288959
163.900000 -2.288959 -2.288959
163.950000 -2.288959 -2.288959
164.000000 -2.288959 -2.288959
164.050000 -2.288959 -2.288959
164.100000 -2.288959 -2.288959
164.150000 -2.288959 -2.288959
164.200000 -2.288959 -2.288959
164.250000 -2.288959 -2.288959
164.300000 -2.288959 -2.288959
164.350000 -2.288959 -2.288959
164.400000 -2.288959 -2.288959
164.450000 -2.288959 -2.288959
164.500000 -2.288959 -2.288959
164.550000 -2.288959 -2.288959
164.600000 -2.288959 -2.288959
164.650000 -2.288959 -2.288959
164.700000 -2.288959 -2.288959
164.750000 -2.288959 -2.288959
164.800000 -2.288959 -2.288959
164.850000 -2.288959 -2.288959
164.900000 -2.288959 -2.288959
164.950000 -2.288959 -2.288959
165.000000 -2.288959 -2.288959
165.050000 -2.288959 -2.288959
165.100000 -2.288959 -2.288959
165.150000 -2.288959 -2.288959
165.200000 -2.288959 -2.288959
165.250000 -2.288959 -2.288959
165.300000 -2.288959 -2.288959
165.350000 -2.288959 -2.288959
165.400000 -2.288959 -2.288959
165.450000 -2.288959 -2.288959
165.500000 -2.288959 -2.288959
165.550000 -2.288959 -2.288959
165.600000 -2.288959 -2.288959
165.650000 -2.288959 -2.288959
165.700000 -2.288959 -2.288959
165.750000 -2.288959 -2.288959
165.800000 -2.288959 -2.288959
165.850000 -2.288959 -2.288959
165.900000 -2.288959 -2.288959
165.950000 -2.288959 -2.288959
166.000000 -2.288959 -2.288959
166.050000 -2.288959 -2.288959
166.100000 -2.288959 -2.288959
166.150000 -2.288959 -2.288959
166.200000 -2.288959 -2.288959
166.250000 -2.288959 -2.288959
166.300000 -2.288959 -2.288959
166.350000 -2.288959 -2.288959
166.400000 -2.288959 -2.288959
166.450000 -2.288959 -2.288959
166.500000 -2.288959 -2.288959
166.550000 -2.288959 -2.288959
166.600000 -2.288959 -2.288959
166.650000 -2.288959 -2.288959
166.700000 -2.288959 -2.288959
166.750000 -2.288959 -2.288959
166.800000 -2.288959 -2.288959
166.850000 -2.288959 -2.288959
166.900000 -2.288959 -2.288959
166.950000 -2.288959 -2.288959
167.000000 -2.288959 -2.288959
167.050000 -2.288959 -2.288959
167.100000 -2.288959 -2.288959
167.150000 -2.288959 -2.288959
167.200000 -2.288959 -2.288959
167.250000 -2.288959 -2.288959
167.300000 -2.288959 -2.288959
167.350000 -2.288959 -2.288959
167.400000 -2.288959 -2.288959
167.450000 -2.288959 -2.288959
167.500000 -2.288959 -2.288959
167.550000 -2.288959 -2.288959
167.600000 -2.288959 -2.288959
167.650000 -2.288959 -2.288959
167.700000 -2.288959 -2.288959
167.750000 -2.288959 -2.288959
167.800000 -2.288959 -2.288959
167.850000 -2.288959 -2.288959
167.900000 -2.288959 -2.288959
167.950000 -2.288959 -2.288959
168.000000 -2.288959 -2.288959
168.050000 -2.288959 -2.288959
168.100000 -2.288959 -2.288959
168.150000 -2.288959 -2.288959
168.200000 -2.288959 -2.288959
168.250000 -2.288959 -2.288959
168.300000 -2.288959 -2.288959
168.350000 -2.288959 -2.288959
168.400000 -2.288959 -2.288959
168.450000 -2.288959 -2.288959
168.500000 -2.288959 -2.288959
168.550000 -2.288959 -2.288959
168.600000 -2.288959 -2.288959
168.650000 -2.288959 -2.288959
168.700000 -2.288959 -2.288959
168.750000 -2.288959 -2.288959
168.800000 -2.288959 -2.288959
168.850000 -2.288959 -2.288959
168.900000 -2.288959 -2.288959
168.950000 -2.288959 -2.288959
169.000000 -2.288959 -2.288959
169.050000 -2.288959 -2.288959
169.100000 -2.288959 -2.288959
169.150000 -2.288959 -2.288959
169.200000 -2.288959 -2.288959
169.250000 -2.288959 -2.288959
169.300000 -2.288959 -2.288959
169.350000 -2.288959 -2.288959
169.400000 -2.288959 -2.288959
169.450000 -2.288959 -2.288959
169.500000 -2.288959 -2.288959
169.550000 -2.288959 -2.288959
169.600000 -2.288959 -2.288959
169.650000 -2.288959 -2.288959
169.700000 -2.288959 -2.288959
169.750000 -2.288959 -2.288959
169.800000 -2.288959 -2.288959
169.850000 -2.288959 -2.288959
169.900000 -2.288959 -2.288959
169.950000 -2.288959 -2.288959
170.000000 -2.288959 -2.288959
170.050000 -2.288959 -2.288959
170.100000 -2.288959 -2.288959
170.150000 -2.288959 -2.288959
170.200000 -2.288959 -2.288959
170.250000 -2.288959 -2.288959
170.300000 -2.288959 -2.288959
170.350000 -2.288959 -2.288959
170.400000 -2.288959 -2.288959
170.450000 -2.288959 -2.288959
170.500000 -2.288959 -2.288959
170.550000 -2.288959 -2.288959
170.600000 -2.288959 -2.288959
170.650000 -2.288959 -2.288959
170.700000 -2.288959 -2.288959
170.750000 -2.288959 -2.288959
170.800000 -2.288959 -2.288959
170.850000 -2.288959 -2.288959
170.900000 -2.288959 -2.288959
170.950000 -2.288959 -2.288959
171.000000 -2.288959 -2.288959
171.050000 -2.288959 -2.288959
171.100000 -2.288959 -2.288959
171.150000 -2.288959 -2.288959
171.200000 -2.288959 -2.288959
171.250000 -2.288959 -2.288959
171.300000 -2.288959 -2.288959
171.350000 -2.288959 -2.288959
171.400000 -2.288959 -2.288959
171.450000 -2.288959 -2.288959
171.500000 -2.288959 -2.288959
171.550000 -2.288959 -2.288959
171.600000 -2.288959 -2.288959
171.650000 -2.288959 -2.288959
171.700000 -2.288959 -2.288959
171.750000 -2.288959 -2.288959
171.800000 -2.288959 -2.288959
171.850000 -2.288959 -2.288959
171.900000 -2.288959 -2.288959
171.950000 -2.288959 -2.288959
172.000000 -2.288959 -2.288959
172.050000 -2.288959 -2.288959
172.100000 -2.288959 -2.288959
172.150000 -2.288959 -2.288959
172.200000 -2.288959 -2.288959
172.250000 -2.288959 -2.288959
172.300000 -2.288959 -2.288959
172.350000 -2.288959 -2.288959
172.400000 -2.288959 -2.288959
172.450000 -2.288959 -2.288959
172.500000 -2.288959 -2.288959
172.550000 -2.288959 -2.288959
172.600000 -2.288959 -2.288959
172.650000 -2.288959 -2.288959
172.700000 -2.288959 -2.288959
172.750000 -2.288959 -2.288959
172.800000 -2.288959 -2.288959
172.850000 -2.288959 -2.288959
172.900000 -2.288959 -2.288959
172.950000 -2.288959 -2.288959
173.000000 -2.288959 -2.288959
173.050000 -2.288959 -2.288959
173.100000 -2.288959 -2.288959
173.150000 -2.288959 -2.288959
173.200000 -2.288959 -2.288959
173.250000 -2.288959 -2.288959
173.300000 -2.288959 -2.288959
173.350000 -2.288959 -2.288959
173.400000 -2.288959 -2.288959
173.450000 -2.288959 -2.288959
173.500000 -2.288959 -2.288959
173.550000 -2.288959 -2.288959
173.600000 -2.288959 -2.288959
173.650000 -2.288959 -2.288959
173.700000 -2.288959 -2.288959
173.750000 -2.288959 -2.288959
173.800000 -2.288959 -2.288959
173.850000 -2.288959 -2.288959
173.900000 -2.288959 -2.288959
173.950000 -2.288959 -2.288959
174.000000 -2.288959 -2.288959
174.050000 -2.288959 -2.288959
174.100000 -2.288959 -2.288959
174.150000 -2.288959 -2.288959
174.200000 -2.288959 -2.288959
174.250000 -2.288959 -2.288959
174.300000 -2.288959 -2.288959
174.350000 -2.288959 -2.288959
174.400000 -2.288959 -2.288959
174.450000 -2.288959 -2.288959
174.500000 -2.288959 -2.288959
174.550000 -2.288959 -2.288959
174.600000 -2.288959 -2.288959
174.650000 -2.288959 -2.288959
174.700000 -2.288959 -2.288959
174.750000 -2.288959 -2.288959
174.800000 -2.288959 -2.288959
174.850000 -2.288959 -2.288959
174.900000 -2.288959 -2.288959
174.950000 -2.288959 -2.288959
175.000000 -2.288959 -2.288959
175.050000 -2.288959 -2.288959
175.100000 -2.288959 -2.288959
175.150000 -2.288959 -2.288959
175.200000 -2.288959 -2.288959
175.250000 -2.288959 -2.288959
175.300000 -2.288959 -2.288959
175.350000 -2.288959 -2.288959
175.400000 -2.288959 -2.288959
175.450000 -2.288959 -2.288959
175.500000 -2.288959 -2.288959
175.550000 -2.288959 -2.288959
175.600000 -2.288959 -2.288959
175.650000 -2.288959 -2.288959
175.700000 -2.288959 -2.288959
175.750000 -2.288959 -2.288959
175.800000 -2.288959 -2.288959
175.850000 -2.288959 -2.288959
175.900000 -2.288959 -2.288959
175.950000 -2.288959 -2.288959
176.000000 -2.288959 -2.288959
176.050000 -2.288959 -2.288959
176.100000 -2.288959 -2.288959
176.150000 -2.288959 -2.288959
176.200000 -2.288959 -2.288959
176.250000 -2.288959 -2.288959
176.300000 -2.288959 -2.288959
176.350000 -2.288959 -2.288959
176.400000 -2.288959 -2.288959
176.450000 -2.288959 -2.288959
176.500000 -2.288959 -2.288959
176.550000 -2.288959 -2.288959
176.600000 -2.288959 -2.288959
176.650000 -2.288959 -2.288959
176.700000 -2.288959 -2.288959
176.750000 -2.288959 -2.288959
176.800000 -2.288959 -2.288959
176.850000 -2.288959 -2.288959
176.900000 -2.288959 -2.288959
176.950000 -2.288959 -2.288959
177.000000 -2.288959 -2.288959
177.050000 -2.288959 -2.288959
177.100000 -2.288959 -2.288959
177.150000 -2.288959 -2.288959
177.200000 -2.288959 -2.288959
177.250000 -2.288959 -2.288959
177.300000 -2.288959 -2.288959
177.350000 -2.288959 -2.288959
177.400000 -2.288959 -2.288959
177.450000 -2.288959 -2.288959
177.500000 -2.288959 -2.288959
177.550000 -2.288959 -2.288959
177.600000 -2.288959 -2.288959
177.650000 -2.288959 -2.288959
177.700000 -2.288959 -2.288959
177.750000 -2.288959 -2.288959
177.800000 -2.288959 -2.288959
177.850000 -2.288959 -2.288959
177.900000 -2.288959 -2.288959
177.950000 -2.288959 -2.288959
178.000000 -2.288959 -2.288959
178.050000 -2.288959 -2.288959
178.100000 -2.288959 -2.288959
178.150000 -2.288959 -2.288959
178.200000 -2.288959 -2.288959
178.250000 -2.288959 -2.288959
178.300000 -2.288959 -2.288959
178.350000 -2.288959 -2.288959
178.400000 -2.288959 -2.288959
178.450000 -2.288959 -2.288959
178.500000 -2.288959 -2.288959
178.550000 -2.288959 -2.288959
178.600000 -2.288959 -2.288959
178.650000 -2.288959 -2.288959
178.700000 -2.288959 -2.288959
178.750000 -2.288959 -2.288959
178.800000 -2.288959 -2.288959
178.850000 -2.288959 -2.288959
178.900000 -2.288959 -2.288959
178.950000 -2.288959 -2.288959
179.000000 -2.288959 -2.288959
179.050000 -2.288959 -2.288959
179.100000 -2.288959 -2.288959
179.150000 -2.288959 -2.288959
179.200000 -2.288959 -2.288959
179.250000 -2.288959 -2.288959
179.300000 -2.288959 -2.288959
179.350000 -2.288959 -2.288959
179.400000 -2.288959 -2.288959
179.450000 -2.288959 -2.288959
179.500000 -2.288959 -2.288959
179.550000 -2.288959 -2.288959
179.600000 -2.288959 -2.288959
179.650000 -2.288959 -2.288959
179.700000 -2.288959 -2.288959
179.750000 -2.288959 -2.288959
179.800000 -2.288959 -2.288959
179.850000 -2.288959 -2.288959
179.900000 -2.288959 -2.288959
179.950000 -2.288959 -2.288959
180.000000 -2.288959 -2.288959
180.050000 -2.288959 -2.288959
180.100000 -2.288959 -2.288959
180.150000 -2.288959 -2.288959
180.200000 -2.288959 -2.288959
180.250000 -2.288959 -2.288959
180.300000 -2.288959 -2.288959
180.350000 -2.288959 -2.288959
180.400000 -2.288959 -2.288959
180.450000 -2.288959 -2.288959
180.500000 -2.288959 -2.288959
180.550000 -2.288959 -2.288959
180.600000 -2.288959 -2.288959
180.650000 -2.288959 -2.288959
180.700000 -2.288959 -2.288959
180.750000 -2.288959 -2.288959
180.800000 -2.288959 -2.288959
180.850000 -2.288959 -2.288959
180.900000 -2.288959 -2.288959
180.950000 -2.288959 -2.288959
181.000000 -2.288959 -2.288959
181.050000 -2.288959 -2.288959
181.100000 -2.288959 -2.288959
181.150000 -2.288959 -2.288959
181.200000 -2.288959 -2.288959
181.250000 -2.288959 -2.288959
181.300000 -2.288959 -2.288959
181.350000 -2.288959 -2.288959
181.400000 -2.288959 -2.288959
181.450000 -2.288959 -2.288959
181.500000 -2.288959 -2.288959
181.550000 -2.288959 -2.288959
181.600000 -2.288959 -2.288959
181.650000 -2.288959 -2.288959
181.700000 -2.288959 -2.288959
181.750000 -2.288959 -2.288959
181.800000 -2.288959 -2.288959
181.850000 -2.288959 -2.288959
181.900000 -2.288959 -2.288959
181.950000 -2.288959 -2.288959
182.000000 -2.288959 -2.288959
182.050000 -2.288959 -2.288959
182.100000 -2.288959 -2.288959
182.150000 -2.288959 -2.288959
182.200000 -2.288959 -2.288959
182.250000 -2.288959 -2.288959
182.300000 -2.288959 -2.288959
182.350000 -2.288959 -2.288959
182.400000 -2.288959 -2.288959
182.450000 -2.288959 -2.288959
182.500000 -2.288959 -2.288959
182.550000 -2.288959 -2.288959
182.600000 -2.288959 -2.288959
182.650000 -2.288959 -2.288959
182.700000 -2.288959 -2.288959
182.750000 -2.288959 -2.288959
182.800000 -2.288959 -2.288959
182.850000 -2.288959 -2.288959
182.900000 -2.288959 -2.288959
182.950000 -2.288959 -2.288959
183.000000 -2.288959 -2.288959
183.050000 -2.288959 -2.288959
183.100000 -2.288959 -2.288959
183.150000 -2.288959 -2.288959
183.200000 -2.288959 -2.288959
183.250000 -2.288959 -2.288959
183.300000 -2.288959 -2.288959
183.350000 -2.288959 -2.288959
183.400000 -2.288959 -2.288959
183.450000 -2.288959 -2.288959
183.500000 -2.288959 -2.288959
183.550000 -2.288959 -2.288959
183.600000 -2.288959 -2.288959
183.650000 -2.288959 -2.288959
183.700000 -2.288959 -2.288959
183.750000 -2.288959 -2.288959
183.800000 -2.288959 -2.288959
183.850000 -2.288959 -2.288959
183.900000 -2.288959 -2.288959
183.950000 -2.288959 -2.288959
184.000000 -2.288959 -2.288959
184.050000 -2.288959 -2.288959
184.100000 -2.288959 -2.288959
184.150000 -2.288959 -2.288959
184.200000 -2.288959 -2.288959
184.250000 -2.288959 -2.288959
184.300000 -2.288959 -2.288959
184.350000 -2.288959 -2.288959
184.400000 -2.288959 -2.288959
184.450000 -2.288959 -2.288959
184.500000 -2.288959 -2.288959
184.550000 -2.288959 -2.288959
184.600000 -2.288959 -2.288959
184.650000 -2.288959 -2.288959
184.700000 -2.288959 -2.288959
184.750000 -2.288959 -2.288959
184.800000 -2.288959 -2.288959
184.850000 -2.288959 -2.288959
184.900000 -2.288959 -2.288959
184.950000 -2.288959 -2.288959
185.000000 -2.288959 -2.288959
185.050000 -2.288959 -2.288959
185.100000 -2.288959 -2.288959
185.150000 -2.288959 -2.288959
185.200000 -2.288959 -2.288959
185.250000 -2.288959 -2.288959
185.300000 -2.288959 -2.288959
185.350000 -2.288959 -2.288959
185.400000 -2.288959 -2.288959
185.450000 -2.288959 -2.288959
185.500000 -2.288959 -2.288959
185.550000 -2.288959 -2.288959
185.600000 -2.288959 -2.288959
185.650000 -2.288959 -2.288959
185.700000 -2.288959 -2.288959
185.750000 -2.288959 -2.288959
185.800000 -2.288959 -2.288959
185.850000 -2.288959 -2.288959
185.900000 -2.288959 -2.288959
185.950000 -2.288959 -2.288959
186.000000 -2.288959 -2.288959
186.050000 -2.288959 -2.288959
186.100000 -2.288959 -2.288959
186.150000 -2.288959 -2.288959
186.200000 -2.288959 -2.288959
186.250000 -2.288959 -2.288959
186.300000 -2.288959 -2.288959
186.350000 -2.288959 -2.288959
186.400000 -2.288959 -2.288959
186.450000 -2.288959 -2.288959
186.500000 -2.288959 -2.288959
186.550000 -2.288959 -2.288959
186.600000 -2.288959 -2.288959
186.650000 -2.288959 -2.288959
186.700000 -2.288959 -2.288959
186.750000 -2.288959 -2.288959
186.800000 -2.288959 -2.288959
186.850000 -2.288959 -2.288959
186.900000 -2.288959 -2.288959
186.950000 -2.288959 -2.288959
187.000000 -2.288959 -2.288959
