time[ns] Raw_signal[mV]
-11.100000 0.015417
-11.050000 -0.018842
-11.000000 -0.046250
-10.950000 -0.077082
-10.900000 -0.125045
-10.850000 -0.169581
-10.800000 -0.186711
-10.750000 -0.186711
-10.700000 -0.166155
-10.650000 -0.121619
-10.600000 -0.077082
-10.550000 -0.025694
-10.500000 0.070231
-10.450000 0.183286
-10.400000 0.244952
-10.350000 0.313469
-10.300000 0.416246
-10.250000 0.484764
-10.200000 0.481338
-10.150000 0.498467
-10.100000 0.512171
-10.050000 0.440227
-10.000000 0.334024
-9.950000 0.238099
-9.900000 0.138749
-9.850000 0.011991
-9.800000 -0.090786
-9.750000 -0.162729
-9.700000 -0.214117
-9.650000 -0.231247
-9.600000 -0.220970
-9.550000 -0.190137
-9.500000 -0.135323
-9.450000 -0.083934
-9.400000 -0.063379
-9.350000 -0.049676
-9.300000 -0.042823
-9.250000 -0.046249
-9.200000 -0.059953
-9.150000 -0.083934
-9.100000 -0.131896
-9.050000 -0.173007
-9.000000 -0.166155
-8.950000 -0.155878
-8.900000 -0.169581
-8.850000 -0.176432
-8.800000 -0.152452
-8.750000 -0.131896
-8.700000 -0.128471
-8.650000 -0.121619
-8.600000 -0.125045
-8.550000 -0.152452
-8.500000 -0.179859
-8.450000 -0.210692
-8.400000 -0.262080
-8.350000 -0.289487
-8.300000 -0.289488
-8.250000 -0.272358
-8.200000 -0.248377
-8.150000 -0.196988
-8.100000 -0.135322
-8.050000 -0.077082
-8.000000 -0.001712
-7.950000 0.077083
-7.900000 0.138749
-7.850000 0.190137
-7.800000 0.238100
-7.750000 0.262081
-7.700000 0.244952
-7.650000 0.193563
-7.600000 0.128471
-7.550000 0.049676
-7.500000 -0.029120
-7.450000 -0.107915
-7.400000 -0.183284
-7.350000 -0.248377
-7.300000 -0.296339
-7.250000 -0.313469
-7.200000 -0.299765
-7.150000 -0.251803
-7.100000 -0.173007
-7.050000 -0.083934
-7.000000 0.005139
-6.950000 0.107916
-6.900000 0.210692
-6.850000 0.275785
-6.800000 0.303192
-6.750000 0.303191
-6.700000 0.275785
-6.650000 0.214119
-6.600000 0.135323
-6.550000 0.056528
-6.500000 -0.025694
-6.450000 -0.107915
-6.400000 -0.176432
-6.350000 -0.234673
-6.300000 -0.299766
-6.250000 -0.354579
-6.200000 -0.385412
-6.150000 -0.371709
-6.100000 -0.361431
-6.050000 -0.358005
-6.000000 -0.347728
-5.950000 -0.340876
-5.900000 -0.358005
-5.850000 -0.371709
-5.800000 -0.368283
-5.750000 -0.364857
-5.700000 -0.351153
-5.650000 -0.316894
-5.600000 -0.275784
-5.550000 -0.241525
-5.500000 -0.169581
-5.450000 -0.066804
-5.400000 0.025694
-5.350000 0.104490
-5.300000 0.183286
-5.250000 0.234673
-5.200000 0.251803
-5.150000 0.258655
-5.100000 0.258655
-5.050000 0.231248
-5.000000 0.186711
-4.950000 0.135323
-4.900000 0.083934
-4.850000 0.035972
-4.800000 -0.018842
-4.750000 -0.059952
-4.700000 -0.080508
-4.650000 -0.101063
-4.600000 -0.145599
-4.550000 -0.166155
-4.500000 -0.183284
-4.450000 -0.251803
-4.400000 -0.316894
-4.350000 -0.316895
-4.300000 -0.303191
-4.250000 -0.330598
-4.200000 -0.323746
-4.150000 -0.251803
-4.100000 -0.190137
-4.050000 -0.179859
-4.000000 -0.162729
-3.950000 -0.128471
-3.900000 -0.118193
-3.850000 -0.131896
-3.800000 -0.159303
-3.750000 -0.207266
-3.700000 -0.255228
-3.650000 -0.282636
-3.600000 -0.296339
-3.550000 -0.310043
-3.500000 -0.313469
-3.450000 -0.279210
-3.400000 -0.251803
-3.350000 -0.214117
-3.300000 -0.128470
-3.250000 -0.094212
-3.200000 -0.169581
-3.150000 -0.162729
-3.100000 -0.008565
-3.050000 0.025694
-3.000000 -0.097638
-2.950000 -0.070230
-2.900000 0.080509
-2.850000 0.049676
-2.800000 -0.063378
-2.750000 -0.070230
-2.700000 -0.118193
-2.650000 -0.190136
-2.600000 -0.077082
-2.550000 -0.001713
-2.500000 -0.169581
-2.450000 -0.241525
-2.400000 -0.094212
-2.350000 -0.114767
-2.300000 -0.258655
-2.250000 -0.152452
-2.200000 -0.015416
-2.150000 -0.125044
-2.100000 -0.149026
-2.050000 0.053102
-2.000000 0.059953
-1.950000 -0.186711
-1.900000 -0.306617
-1.850000 -0.289487
-1.800000 -0.286061
-1.750000 -0.275784
-1.700000 -0.323747
-1.650000 -0.512171
-1.600000 -0.587540
-1.550000 -0.481337
-1.500000 -0.467634
-1.450000 -0.536151
-1.400000 -0.395690
-1.350000 -0.162730
-1.300000 -0.101064
-1.250000 -0.070231
-1.200000 -0.005139
-1.150000 -0.035971
-1.100000 -0.011990
-1.050000 0.183285
-1.000000 0.203841
-0.950000 -0.039398
-0.900000 -0.073657
-0.850000 0.107916
-0.800000 0.121619
-0.750000 0.083934
-0.700000 0.279210
-0.650000 0.443653
-0.600000 0.423097
-0.550000 0.484764
-0.500000 0.635503
-0.450000 0.628651
-0.400000 0.525875
-0.350000 0.498467
-0.300000 0.443653
-0.250000 0.289488
-0.200000 0.114768
-0.150000 -0.063378
-0.100000 -0.265506
-0.050000 -0.440226
0.000000 -0.566985
0.050000 -0.645780
0.100000 -0.683465
0.150000 -0.731427
0.200000 -0.772538
0.250000 -0.690317
0.300000 -0.508744
0.350000 -0.443653
0.400000 -0.491614
0.450000 -0.419671
0.500000 -0.224395
0.550000 -0.121619
0.600000 -0.121619
0.650000 -0.083934
0.700000 -0.063378
0.750000 -0.128470
0.800000 -0.138748
0.850000 -0.032545
0.900000 0.083934
0.950000 0.220970
1.000000 0.498467
1.050000 0.909574
1.100000 1.416606
1.150000 2.112062
1.200000 3.081588
1.250000 4.256668
1.300000 5.623599
1.350000 7.237193
1.400000 9.046062
1.450000 10.906324
1.500000 12.728895
1.550000 14.513785
1.600000 16.230159
1.650000 17.802643
1.700000 19.131888
1.750000 20.217894
1.800000 21.101767
1.850000 21.728712
1.900000 22.115839
1.950000 22.396752
2.000000 22.650269
2.050000 22.783887
2.100000 22.766755
2.150000 22.705086
2.200000 22.622870
2.250000 22.461845
2.300000 22.184348
2.350000 21.776671
2.400000 21.242229
2.450000 20.598164
2.500000 19.834195
2.550000 18.919482
2.600000 17.874582
2.650000 16.771444
2.700000 15.647751
2.750000 14.530915
2.800000 13.434627
2.850000 12.379455
2.900000 11.385946
2.950000 10.508915
3.000000 9.772352
3.050000 9.152266
3.100000 8.655512
3.150000 8.319774
3.200000 8.093666
3.250000 7.942926
3.300000 7.905241
3.350000 7.963482
3.400000 8.021720
3.450000 8.103944
3.500000 8.282093
3.550000 8.521902
3.600000 8.748007
3.650000 8.974123
3.700000 9.224208
3.750000 9.477720
3.800000 9.720961
3.850000 9.947076
3.900000 10.114940
3.950000 10.200583
4.000000 10.217721
4.050000 10.180033
4.100000 10.063552
4.150000 9.847722
4.200000 9.529118
4.250000 9.155691
4.300000 8.751436
4.350000 8.299219
4.400000 7.785335
4.450000 7.261174
4.500000 6.812383
4.550000 6.397850
4.600000 5.969613
4.650000 5.579062
4.700000 5.267306
4.750000 4.982957
4.800000 4.691756
4.850000 4.451944
4.900000 4.304631
4.950000 4.208706
5.000000 4.112781
5.050000 4.040838
5.100000 4.040837
5.150000 4.078522
5.200000 4.126485
5.250000 4.212132
5.300000 4.345741
5.350000 4.475926
5.400000 4.578702
5.450000 4.681479
5.500000 4.756849
5.550000 4.801385
5.600000 4.845922
5.650000 4.897310
5.700000 4.914439
5.750000 4.893884
5.800000 4.859625
5.850000 4.832218
5.900000 4.801385
5.950000 4.770552
6.000000 4.729441
6.050000 4.688331
6.100000 4.626665
6.150000 4.530740
6.200000 4.407408
6.250000 4.280649
6.300000 4.112781
6.350000 3.900376
6.400000 3.701674
6.450000 3.526954
6.500000 3.335104
6.550000 3.139829
6.600000 2.982238
6.650000 2.858905
6.700000 2.745851
6.750000 2.646501
6.800000 2.571131
6.850000 2.519743
6.900000 2.478632
6.950000 2.430669
7.000000 2.396411
7.050000 2.410114
7.100000 2.420391
7.150000 2.406689
7.200000 2.440947
7.250000 2.547150
7.300000 2.646500
7.350000 2.721870
7.400000 2.828072
7.450000 2.944553
7.500000 3.023348
7.550000 3.057607
7.600000 3.054181
7.650000 3.033626
7.700000 2.995941
7.750000 2.930850
7.800000 2.817795
7.850000 2.684186
7.900000 2.554001
7.950000 2.423817
8.000000 2.303912
8.050000 2.197709
8.100000 2.115488
8.150000 2.033266
8.200000 1.944193
8.250000 1.861971
8.300000 1.796880
8.350000 1.721510
8.400000 1.632437
8.450000 1.553641
8.500000 1.512531
8.550000 1.481698
8.600000 1.430309
8.650000 1.396051
8.700000 1.399476
8.750000 1.389199
8.800000 1.361792
8.850000 1.368644
8.900000 1.396051
8.950000 1.389199
9.000000 1.392625
9.050000 1.426884
9.100000 1.433735
9.150000 1.396051
9.200000 1.396050
9.250000 1.430309
9.300000 1.430310
9.350000 1.406328
9.400000 1.392625
9.450000 1.365218
9.500000 1.286422
9.550000 1.197349
9.600000 1.111702
9.650000 1.019203
9.700000 0.930130
9.750000 0.871889
9.800000 0.830778
9.850000 0.813649
9.900000 0.817075
9.950000 0.847908
10.000000 0.913000
10.050000 0.995221
10.100000 1.063739
10.150000 1.115128
10.200000 1.159664
10.250000 1.152813
10.300000 1.094572
10.350000 1.008925
10.400000 0.889018
10.450000 0.762261
10.500000 0.662911
10.550000 0.587541
10.600000 0.512171
10.650000 0.481338
10.700000 0.508745
10.750000 0.553282
10.800000 0.608096
10.850000 0.704021
10.900000 0.830779
10.950000 0.936981
11.000000 1.019203
11.050000 1.091146
11.100000 1.142535
11.150000 1.142535
11.200000 1.104850
11.250000 1.087720
11.300000 1.080869
11.350000 1.060313
11.400000 1.043184
11.450000 1.036333
11.500000 1.022629
11.550000 0.988370
11.600000 0.971240
11.650000 0.954111
11.700000 0.913000
11.750000 0.858186
11.800000 0.810223
11.850000 0.779390
11.900000 0.731428
11.950000 0.652632
12.000000 0.597819
12.050000 0.580689
12.100000 0.556708
12.150000 0.515597
12.200000 0.491615
12.250000 0.515597
12.300000 0.563559
12.350000 0.611522
12.400000 0.645780
12.450000 0.676614
12.500000 0.697169
12.550000 0.707447
12.600000 0.721151
12.650000 0.755409
12.700000 0.775965
12.750000 0.769113
12.800000 0.789668
12.850000 0.851335
12.900000 0.889019
12.950000 0.882167
13.000000 0.875315
13.050000 0.889019
13.100000 0.902723
13.150000 0.902722
13.200000 0.892445
13.250000 0.861611
13.300000 0.813649
13.350000 0.734853
13.400000 0.652633
13.450000 0.584114
13.500000 0.522449
13.550000 0.460783
13.600000 0.416246
13.650000 0.381987
13.700000 0.361432
13.750000 0.368284
13.800000 0.412820
13.850000 0.460782
13.900000 0.515597
13.950000 0.584114
14.000000 0.638929
14.050000 0.676614
14.100000 0.710873
14.150000 0.751983
14.200000 0.772538
14.250000 0.772539
14.300000 0.762261
14.350000 0.731428
14.400000 0.683466
14.450000 0.632077
14.500000 0.546430
14.550000 0.457357
14.600000 0.412820
14.650000 0.381988
14.700000 0.303192
14.750000 0.220971
14.800000 0.176434
14.850000 0.118194
14.900000 0.046250
14.950000 0.022269
15.000000 0.005139
15.050000 -0.056527
15.100000 -0.101064
15.150000 -0.087360
15.200000 -0.077082
15.250000 -0.080508
15.300000 -0.053101
15.350000 -0.029120
15.400000 -0.008564
15.450000 0.029121
15.500000 0.073657
15.550000 0.104490
15.600000 0.155879
15.650000 0.224396
15.700000 0.258655
15.750000 0.279210
15.800000 0.313470
15.850000 0.327173
15.900000 0.344303
15.950000 0.402542
16.000000 0.440227
16.050000 0.429949
16.100000 0.440228
16.150000 0.488190
16.200000 0.501893
16.250000 0.491615
16.300000 0.508745
16.350000 0.515597
16.400000 0.488190
16.450000 0.471061
16.500000 0.471060
16.550000 0.440228
16.600000 0.395690
16.650000 0.381987
16.700000 0.375135
16.750000 0.347728
16.800000 0.320322
16.850000 0.286062
16.900000 0.244952
16.950000 0.231247
17.000000 0.207267
17.050000 0.142175
17.100000 0.090786
17.150000 0.077083
17.200000 0.059953
17.250000 0.039398
17.300000 0.046250
17.350000 0.056527
17.400000 0.087360
17.450000 0.159304
17.500000 0.231248
17.550000 0.292914
17.600000 0.378561
17.650000 0.457357
17.700000 0.484764
17.750000 0.488189
17.800000 0.474487
17.850000 0.412820
17.900000 0.351154
17.950000 0.316895
18.000000 0.241526
18.050000 0.152452
18.100000 0.107916
18.150000 0.090786
18.200000 0.066805
18.250000 0.094212
18.300000 0.173008
18.350000 0.231248
18.400000 0.289488
18.450000 0.388839
18.500000 0.481338
18.550000 0.529301
18.600000 0.553281
18.650000 0.573837
18.700000 0.577263
18.750000 0.553282
18.800000 0.481338
18.850000 0.381988
18.900000 0.310044
18.950000 0.248377
19.000000 0.155878
19.050000 0.063380
19.100000 0.015417
19.150000 -0.029120
19.200000 -0.049675
19.250000 -0.029119
19.300000 -0.001713
19.350000 0.035973
19.400000 0.131897
19.450000 0.251803
19.500000 0.313470
19.550000 0.334024
19.600000 0.381987
19.650000 0.412820
19.700000 0.385413
19.750000 0.323747
19.800000 0.244952
19.850000 0.142174
19.900000 0.008566
19.950000 -0.125045
20.000000 -0.241525
20.050000 -0.327172
20.100000 -0.402541
20.150000 -0.457356
20.200000 -0.467634
20.250000 -0.457356
20.300000 -0.419671
20.350000 -0.337450
20.400000 -0.244951
20.450000 -0.186711
20.500000 -0.125045
20.550000 -0.022268
20.600000 0.070231
20.650000 0.107916
20.700000 0.149027
20.750000 0.210692
20.800000 0.248377
20.850000 0.265507
20.900000 0.306618
20.950000 0.351154
21.000000 0.375136
21.050000 0.392264
21.100000 0.412820
21.150000 0.399116
21.200000 0.378561
21.250000 0.354580
21.300000 0.320321
21.350000 0.275784
21.400000 0.224396
21.450000 0.155879
21.500000 0.066805
21.550000 -0.025694
21.600000 -0.083934
21.650000 -0.118192
21.700000 -0.138748
21.750000 -0.142174
21.800000 -0.121618
21.850000 -0.070231
21.900000 -0.008564
21.950000 0.035972
22.000000 0.070231
22.050000 0.121619
22.100000 0.183286
22.150000 0.220970
22.200000 0.238100
22.250000 0.255229
22.300000 0.265507
22.350000 0.244951
22.400000 0.203841
22.450000 0.166156
22.500000 0.152452
22.550000 0.128471
22.600000 0.101064
22.650000 0.104490
22.700000 0.142175
22.750000 0.162730
22.800000 0.176434
22.850000 0.224396
22.900000 0.275784
22.950000 0.268933
23.000000 0.224397
23.050000 0.179860
23.100000 0.135323
23.150000 0.066805
23.200000 -0.015416
23.250000 -0.104489
23.300000 -0.173007
23.350000 -0.217544
23.400000 -0.244951
23.450000 -0.231247
23.500000 -0.173007
23.550000 -0.097638
23.600000 -0.011990
23.650000 0.097638
23.700000 0.190137
23.750000 0.241526
23.800000 0.272359
23.850000 0.299765
23.900000 0.286062
23.950000 0.227822
24.000000 0.159304
24.050000 0.094212
24.100000 0.005139
24.150000 -0.083934
24.200000 -0.149026
24.250000 -0.179859
24.300000 -0.186710
24.350000 -0.176433
24.400000 -0.176433
24.450000 -0.159303
24.500000 -0.111341
24.550000 -0.073656
24.600000 -0.070231
24.650000 -0.077082
24.700000 -0.097638
24.750000 -0.152452
24.800000 -0.210692
24.850000 -0.251803
24.900000 -0.303191
24.950000 -0.354580
25.000000 -0.375135
25.050000 -0.388838
25.100000 -0.409393
25.150000 -0.385412
25.200000 -0.316895
25.250000 -0.265506
25.300000 -0.214118
25.350000 -0.128471
25.400000 -0.053101
25.450000 -0.022268
25.500000 0.022268
25.550000 0.077082
25.600000 0.077083
25.650000 0.032547
25.700000 0.011991
25.750000 -0.001712
25.800000 -0.056527
25.850000 -0.101063
25.900000 -0.104489
25.950000 -0.087360
26.000000 -0.083934
26.050000 -0.073656
26.100000 -0.018842
26.150000 0.042824
26.200000 0.073657
26.250000 0.107916
26.300000 0.173008
26.350000 0.241526
26.400000 0.265506
26.450000 0.262080
26.500000 0.255230
26.550000 0.265507
26.600000 0.282636
26.650000 0.303191
26.700000 0.323747
26.750000 0.344303
26.800000 0.358006
26.850000 0.368284
26.900000 0.368284
26.950000 0.368283
27.000000 0.351154
27.050000 0.320322
27.100000 0.275784
27.150000 0.203841
27.200000 0.111341
27.250000 0.029120
27.300000 -0.032545
27.350000 -0.097638
27.400000 -0.159304
27.450000 -0.173007
27.500000 -0.131896
27.550000 -0.070230
27.600000 -0.011990
27.650000 0.039398
27.700000 0.073657
27.750000 0.090786
27.800000 0.090786
27.850000 0.059953
27.900000 -0.001713
27.950000 -0.083934
28.000000 -0.166155
28.050000 -0.244951
28.100000 -0.323747
28.150000 -0.395690
28.200000 -0.423097
28.250000 -0.405968
28.300000 -0.388838
28.350000 -0.368283
28.400000 -0.316895
28.450000 -0.238099
28.500000 -0.169581
28.550000 -0.111341
28.600000 -0.035972
28.650000 0.049675
28.700000 0.114768
28.750000 0.155878
28.800000 0.190138
28.850000 0.214118
28.900000 0.220970
28.950000 0.224396
29.000000 0.217544
29.050000 0.166156
29.100000 0.080509
29.150000 0.011991
29.200000 -0.035971
29.250000 -0.094212
29.300000 -0.169581
29.350000 -0.207266
29.400000 -0.207266
29.450000 -0.200414
29.500000 -0.190136
29.550000 -0.142174
29.600000 -0.049675
29.650000 0.035972
29.700000 0.097638
29.750000 0.159304
29.800000 0.224396
29.850000 0.262081
29.900000 0.268932
29.950000 0.248377
30.000000 0.234674
30.050000 0.217545
30.100000 0.183286
30.150000 0.135323
30.200000 0.087361
30.250000 0.049676
30.300000 0.032547
30.350000 0.025694
30.400000 0.029120
30.450000 0.046249
30.500000 0.080509
30.550000 0.114768
30.600000 0.152452
30.650000 0.214119
30.700000 0.279210
30.750000 0.306617
30.800000 0.320322
30.850000 0.347728
30.900000 0.375135
30.950000 0.361432
31.000000 0.310044
31.050000 0.265507
31.100000 0.238100
31.150000 0.183286
31.200000 0.107916
31.250000 0.049676
31.300000 0.015417
31.350000 -0.018842
31.400000 -0.032545
31.450000 -0.011991
31.500000 0.011991
31.550000 0.022268
31.600000 0.042824
31.650000 0.063379
31.700000 0.077083
31.750000 0.097639
31.800000 0.121620
31.850000 0.131897
31.900000 0.128471
31.950000 0.107916
32.000000 0.083935
32.050000 0.056527
32.100000 0.022268
32.150000 -0.018842
32.200000 -0.046249
32.250000 -0.073656
32.300000 -0.114767
32.350000 -0.142175
32.400000 -0.128470
32.450000 -0.128471
32.500000 -0.173007
32.550000 -0.214118
32.600000 -0.238099
32.650000 -0.286061
32.700000 -0.337450
32.750000 -0.358006
32.800000 -0.368283
32.850000 -0.368283
32.900000 -0.340876
32.950000 -0.292913
33.000000 -0.262080
33.050000 -0.224396
33.100000 -0.176433
33.150000 -0.142174
33.200000 -0.131896
33.250000 -0.131896
33.300000 -0.138748
33.350000 -0.166155
33.400000 -0.207266
33.450000 -0.234673
33.500000 -0.262080
33.550000 -0.303191
33.600000 -0.327172
33.650000 -0.299765
33.700000 -0.258655
33.750000 -0.238099
33.800000 -0.207266
33.850000 -0.138748
33.900000 -0.090786
33.950000 -0.090786
34.000000 -0.097638
34.050000 -0.094211
34.100000 -0.121619
34.150000 -0.169582
34.200000 -0.183285
34.250000 -0.176433
34.300000 -0.203841
34.350000 -0.231247
34.400000 -0.200414
34.450000 -0.145600
34.500000 -0.083934
34.550000 0.001714
34.600000 0.097638
34.650000 0.193563
34.700000 0.272359
34.750000 0.316895
34.800000 0.316896
34.850000 0.320321
34.900000 0.313469
34.950000 0.238100
35.000000 0.125045
35.050000 0.029121
35.100000 -0.087360
35.150000 -0.238099
35.200000 -0.361431
35.250000 -0.440226
35.300000 -0.519022
35.350000 -0.577262
35.400000 -0.590966
35.450000 -0.570411
35.500000 -0.532726
35.550000 -0.464207
35.600000 -0.392264
35.650000 -0.310043
35.700000 -0.203840
35.750000 -0.114767
35.800000 -0.049675
35.850000 0.025695
35.900000 0.080509
35.950000 0.077082
36.000000 0.066805
36.050000 0.083935
36.100000 0.077083
36.150000 0.029121
36.200000 -0.032545
36.250000 -0.083934
36.300000 -0.138748
36.350000 -0.217544
36.400000 -0.299765
36.450000 -0.358005
36.500000 -0.385412
36.550000 -0.426523
36.600000 -0.467634
36.650000 -0.440226
36.700000 -0.358005
36.750000 -0.286061
36.800000 -0.203840
36.850000 -0.080508
36.900000 0.039398
36.950000 0.097638
37.000000 0.159304
37.050000 0.248378
37.100000 0.306618
37.150000 0.275784
37.200000 0.224396
37.250000 0.196989
37.300000 0.159304
37.350000 0.063379
37.400000 -0.042823
37.450000 -0.097637
37.500000 -0.131896
37.550000 -0.207266
37.600000 -0.262080
37.650000 -0.244951
37.700000 -0.234673
37.750000 -0.251802
37.800000 -0.224396
37.850000 -0.169581
37.900000 -0.159304
37.950000 -0.149026
38.000000 -0.087360
38.050000 -0.053101
38.100000 -0.042823
38.150000 0.005139
38.200000 0.053102
38.250000 0.029120
38.300000 -0.001712
38.350000 -0.005139
38.400000 -0.035971
38.450000 -0.083934
38.500000 -0.104489
38.550000 -0.125044
38.600000 -0.166155
38.650000 -0.176433
38.700000 -0.176433
38.750000 -0.196988
38.800000 -0.193563
38.850000 -0.159303
38.900000 -0.159303
38.950000 -0.179859
39.000000 -0.183285
39.050000 -0.169581
39.100000 -0.159304
39.150000 -0.176433
39.200000 -0.210692
39.250000 -0.220969
39.300000 -0.196988
39.350000 -0.210692
39.400000 -0.251802
39.450000 -0.248377
39.500000 -0.224396
39.550000 -0.244951
39.600000 -0.251803
39.650000 -0.210692
39.700000 -0.196988
39.750000 -0.207266
39.800000 -0.186710
39.850000 -0.145600
39.900000 -0.121619
39.950000 -0.080508
40.000000 -0.042823
40.050000 -0.029120
40.100000 -0.015416
40.150000 0.001713
40.200000 -0.018842
40.250000 -0.049675
40.300000 -0.053101
40.350000 -0.053101
40.400000 -0.053101
40.450000 -0.022268
40.500000 0.025695
40.550000 0.049676
40.600000 0.087361
40.650000 0.138749
40.700000 0.149026
40.750000 0.138749
40.800000 0.138749
40.850000 0.083935
40.900000 -0.032545
40.950000 -0.149026
41.000000 -0.251803
41.050000 -0.381986
41.100000 -0.522448
41.150000 -0.666335
41.200000 -0.786241
41.250000 -0.841056
41.300000 -0.865037
41.350000 -0.875314
41.400000 -0.827352
41.450000 -0.707446
41.500000 -0.590965
41.550000 -0.501893
41.600000 -0.378561
41.650000 -0.251803
41.700000 -0.183285
41.750000 -0.149026
41.800000 -0.138748
41.850000 -0.169581
41.900000 -0.220970
41.950000 -0.286062
42.000000 -0.385412
42.050000 -0.474485
42.100000 -0.525874
42.150000 -0.577262
42.200000 -0.642354
42.250000 -0.666335
42.300000 -0.645780
42.350000 -0.628650
42.400000 -0.621799
42.450000 -0.594392
42.500000 -0.549855
42.550000 -0.505318
42.600000 -0.467633
42.650000 -0.416245
42.700000 -0.364857
42.750000 -0.337450
42.800000 -0.320320
42.850000 -0.265506
42.900000 -0.200415
42.950000 -0.186711
43.000000 -0.169581
43.050000 -0.107915
43.100000 -0.053101
43.150000 -0.029119
43.200000 0.008565
43.250000 0.049676
43.300000 0.029121
43.350000 -0.022268
43.400000 -0.025694
43.450000 -0.042823
43.500000 -0.131896
43.550000 -0.231247
43.600000 -0.286062
43.650000 -0.334024
43.700000 -0.392264
43.750000 -0.426523
43.800000 -0.416245
43.850000 -0.381986
43.900000 -0.330598
43.950000 -0.251802
44.000000 -0.128470
44.050000 0.008565
44.100000 0.118193
44.150000 0.231248
44.200000 0.361432
44.250000 0.440227
44.300000 0.443653
44.350000 0.450504
44.400000 0.477912
44.450000 0.467635
44.500000 0.412820
44.550000 0.364857
44.600000 0.320321
44.650000 0.255229
44.700000 0.193563
44.750000 0.138749
44.800000 0.073657
44.850000 0.011991
44.900000 -0.022268
44.950000 -0.059952
45.000000 -0.097637
45.050000 -0.121618
45.100000 -0.155877
45.150000 -0.193562
45.200000 -0.214118
45.250000 -0.207266
45.300000 -0.193562
45.350000 -0.183285
45.400000 -0.173008
45.450000 -0.173007
45.500000 -0.169581
45.550000 -0.166155
45.600000 -0.169581
45.650000 -0.169582
45.700000 -0.152451
45.750000 -0.152452
45.800000 -0.186711
45.850000 -0.217544
45.900000 -0.227821
45.950000 -0.251802
46.000000 -0.282636
46.050000 -0.282635
46.100000 -0.272358
46.150000 -0.258654
46.200000 -0.224396
46.250000 -0.193563
46.300000 -0.190136
46.350000 -0.176433
46.400000 -0.138748
46.450000 -0.118193
46.500000 -0.097638
46.550000 -0.059952
46.600000 -0.080508
46.650000 -0.142174
46.700000 -0.176433
46.750000 -0.224395
46.800000 -0.313468
46.850000 -0.381987
46.900000 -0.405967
46.950000 -0.433374
47.000000 -0.450504
47.050000 -0.423097
47.100000 -0.351153
47.150000 -0.244950
47.200000 -0.090786
47.250000 0.077083
47.300000 0.231248
47.350000 0.395691
47.400000 0.529300
47.450000 0.597818
47.500000 0.625225
47.550000 0.614948
47.600000 0.560133
47.650000 0.491616
47.700000 0.433375
47.750000 0.340877
47.800000 0.224396
47.850000 0.169582
47.900000 0.176434
47.950000 0.173008
48.000000 0.162731
48.050000 0.186712
48.100000 0.241525
48.150000 0.282636
48.200000 0.286063
48.250000 0.272359
48.300000 0.255229
48.350000 0.217545
48.400000 0.166156
48.450000 0.138749
48.500000 0.159304
48.550000 0.190138
48.600000 0.214118
48.650000 0.262081
48.700000 0.340877
48.750000 0.405968
48.800000 0.440227
48.850000 0.467634
48.900000 0.491616
48.950000 0.484764
49.000000 0.443654
49.050000 0.392265
49.100000 0.316896
49.150000 0.217544
49.200000 0.131897
49.250000 0.063380
49.300000 -0.008564
49.350000 -0.053101
49.400000 -0.059953
49.450000 -0.032546
49.500000 0.005139
49.550000 0.046250
49.600000 0.087361
49.650000 0.135323
49.700000 0.186711
49.750000 0.217544
49.800000 0.231248
49.850000 0.224396
49.900000 0.190137
49.950000 0.128471
50.000000 0.042824
50.050000 -0.059952
50.100000 -0.159303
50.150000 -0.268932
50.200000 -0.378561
50.250000 -0.467634
50.300000 -0.529299
50.350000 -0.584114
50.400000 -0.621799
50.450000 -0.625225
50.500000 -0.604669
50.550000 -0.560133
50.600000 -0.495041
50.650000 -0.433375
50.700000 -0.392264
50.750000 -0.347727
50.800000 -0.292914
50.850000 -0.255229
50.900000 -0.241525
50.950000 -0.227821
51.000000 -0.214118
51.050000 -0.207266
51.100000 -0.190137
51.150000 -0.176433
51.200000 -0.190136
51.250000 -0.193563
51.300000 -0.162729
51.350000 -0.138748
51.400000 -0.145600
51.450000 -0.138748
51.500000 -0.111341
51.550000 -0.101064
51.600000 -0.114767
51.650000 -0.107915
51.700000 -0.097638
51.750000 -0.090786
51.800000 -0.070230
51.850000 -0.018842
51.900000 0.011991
51.950000 0.018843
52.000000 0.029121
52.050000 0.053102
52.100000 0.083935
52.150000 0.090786
52.200000 0.077083
52.250000 0.063380
52.300000 0.059953
52.350000 0.022268
52.400000 -0.039398
52.450000 -0.063379
52.500000 -0.059952
52.550000 -0.049675
52.600000 -0.018842
52.650000 0.053101
52.700000 0.118194
52.750000 0.155878
52.800000 0.203841
52.850000 0.262081
52.900000 0.282636
52.950000 0.258655
53.000000 0.210692
53.050000 0.135323
53.100000 0.015417
53.150000 -0.131897
53.200000 -0.282635
53.250000 -0.409394
53.300000 -0.519022
53.350000 -0.601243
53.400000 -0.608095
53.450000 -0.553281
53.500000 -0.477912
53.550000 -0.392264
53.600000 -0.286062
53.650000 -0.183285
53.700000 -0.107916
53.750000 -0.059953
53.800000 -0.032545
53.850000 -0.032546
53.900000 -0.029120
53.950000 -0.025694
54.000000 -0.049675
54.050000 -0.070230
54.100000 -0.053101
54.150000 -0.018842
54.200000 0.011991
54.250000 0.063380
54.300000 0.138749
54.350000 0.214118
54.400000 0.286062
54.450000 0.334025
54.500000 0.323747
54.550000 0.279211
54.600000 0.241525
54.650000 0.214119
54.700000 0.142175
54.750000 0.035972
54.800000 -0.066805
54.850000 -0.142174
54.900000 -0.196988
54.950000 -0.244951
55.000000 -0.268932
55.050000 -0.282636
55.100000 -0.286061
55.150000 -0.275783
55.200000 -0.244951
55.250000 -0.210692
55.300000 -0.190137
55.350000 -0.173007
55.400000 -0.173007
55.450000 -0.193562
55.500000 -0.220970
55.550000 -0.255228
55.600000 -0.320321
55.650000 -0.399116
55.700000 -0.474485
55.750000 -0.553281
55.800000 -0.604669
55.850000 -0.590965
55.900000 -0.532725
55.950000 -0.491614
56.000000 -0.440226
56.050000 -0.337450
56.100000 -0.214117
56.150000 -0.114767
56.200000 -0.015416
56.250000 0.066805
56.300000 0.114768
56.350000 0.135323
56.400000 0.145601
56.450000 0.125045
56.500000 0.066805
56.550000 -0.005139
56.600000 -0.087360
56.650000 -0.162730
56.700000 -0.224395
56.750000 -0.292914
56.800000 -0.347728
56.850000 -0.361431
56.900000 -0.361431
56.950000 -0.392264
57.000000 -0.426523
57.050000 -0.426523
57.100000 -0.416245
57.150000 -0.409393
57.200000 -0.412819
57.250000 -0.405967
57.300000 -0.375135
57.350000 -0.323746
57.400000 -0.299765
57.450000 -0.289487
57.500000 -0.244951
57.550000 -0.190137
57.600000 -0.155877
57.650000 -0.128471
57.700000 -0.118193
57.750000 -0.138748
57.800000 -0.173007
57.850000 -0.190136
57.900000 -0.220969
57.950000 -0.268932
58.000000 -0.310043
58.050000 -0.340876
58.100000 -0.385412
58.150000 -0.429949
58.200000 -0.440226
58.250000 -0.423097
58.300000 -0.416245
58.350000 -0.433374
58.400000 -0.443652
58.450000 -0.423097
58.500000 -0.402542
58.550000 -0.399115
58.600000 -0.381986
58.650000 -0.330598
58.700000 -0.272358
58.750000 -0.227821
58.800000 -0.196988
58.850000 -0.159304
58.900000 -0.121618
58.950000 -0.080508
59.000000 -0.053101
59.050000 -0.042823
59.100000 -0.046249
59.150000 -0.059953
59.200000 -0.104489
59.250000 -0.183285
59.300000 -0.248377
59.350000 -0.323747
59.400000 -0.416246
59.450000 -0.498467
59.500000 -0.563558
59.550000 -0.625225
59.600000 -0.676613
59.650000 -0.707446
59.700000 -0.724576
59.750000 -0.731428
59.800000 -0.714297
59.850000 -0.669761
59.900000 -0.604670
59.950000 -0.536151
60.000000 -0.477911
60.050000 -0.436801
60.100000 -0.399116
60.150000 -0.351153
60.200000 -0.306617
60.250000 -0.268932
60.300000 -0.224395
60.350000 -0.179858
60.400000 -0.162729
60.450000 -0.162730
60.500000 -0.169581
60.550000 -0.200414
60.600000 -0.255229
60.650000 -0.303191
60.700000 -0.334024
60.750000 -0.358005
60.800000 -0.381987
60.850000 -0.405967
60.900000 -0.416246
60.950000 -0.405968
61.000000 -0.388838
61.050000 -0.375135
61.100000 -0.375134
61.150000 -0.371709
61.200000 -0.368283
61.250000 -0.364857
61.300000 -0.354579
61.350000 -0.337450
61.400000 -0.330598
61.450000 -0.320320
61.500000 -0.282636
61.550000 -0.220970
61.600000 -0.162729
61.650000 -0.118193
61.700000 -0.070231
61.750000 -0.046249
61.800000 -0.063379
61.850000 -0.111341
61.900000 -0.183285
61.950000 -0.272358
62.000000 -0.378561
62.050000 -0.477911
62.100000 -0.584114
62.150000 -0.683465
62.200000 -0.755408
62.250000 -0.775964
62.300000 -0.745131
62.350000 -0.659483
62.400000 -0.539577
62.450000 -0.402542
62.500000 -0.275784
62.550000 -0.162729
62.600000 -0.046250
62.650000 0.059953
62.700000 0.114768
62.750000 0.121619
62.800000 0.104490
62.850000 0.046249
62.900000 -0.029119
62.950000 -0.083934
63.000000 -0.121619
63.050000 -0.166155
63.100000 -0.196988
63.150000 -0.203841
63.200000 -0.193562
63.250000 -0.169581
63.300000 -0.118193
63.350000 -0.073656
63.400000 -0.053101
63.450000 -0.015417
63.500000 0.025695
63.550000 0.039398
63.600000 0.059954
63.650000 0.111342
63.700000 0.142175
63.750000 0.152453
63.800000 0.183285
63.850000 0.217545
63.900000 0.224396
63.950000 0.217545
64.000000 0.190137
64.050000 0.131897
64.100000 0.083935
64.150000 0.039398
64.200000 -0.039397
64.250000 -0.125044
64.300000 -0.155878
64.350000 -0.166155
64.400000 -0.190136
64.450000 -0.193562
64.500000 -0.162729
64.550000 -0.138748
64.600000 -0.125045
64.650000 -0.090786
64.700000 -0.063379
64.750000 -0.059952
64.800000 -0.056527
64.850000 -0.042823
64.900000 -0.039398
64.950000 -0.053101
65.000000 -0.056527
65.050000 -0.066804
65.100000 -0.090785
65.150000 -0.131896
65.200000 -0.166156
65.250000 -0.183285
65.300000 -0.210692
65.350000 -0.255228
65.400000 -0.279209
65.450000 -0.258655
65.500000 -0.238099
65.550000 -0.224395
65.600000 -0.166156
65.650000 -0.083934
65.700000 -0.008565
65.750000 0.066805
65.800000 0.155878
65.850000 0.234674
65.900000 0.282636
65.950000 0.310044
66.000000 0.303192
66.050000 0.282636
66.100000 0.251803
66.150000 0.203841
66.200000 0.128471
66.250000 0.039398
66.300000 -0.053101
66.350000 -0.142174
66.400000 -0.203840
66.450000 -0.255228
66.500000 -0.313469
66.550000 -0.358005
66.600000 -0.375135
66.650000 -0.361431
66.700000 -0.330598
66.750000 -0.292914
66.800000 -0.255229
66.850000 -0.214118
66.900000 -0.162729
66.950000 -0.131896
67.000000 -0.107915
67.050000 -0.063378
67.100000 -0.032545
67.150000 -0.042823
67.200000 -0.042823
67.250000 -0.035972
67.300000 -0.066805
67.350000 -0.118193
67.400000 -0.138749
67.450000 -0.142174
67.500000 -0.149026
67.550000 -0.142174
67.600000 -0.121619
67.650000 -0.118193
67.700000 -0.083934
67.750000 -0.015416
67.800000 0.029120
67.850000 0.070231
67.900000 0.131897
67.950000 0.169582
68.000000 0.169582
68.050000 0.193563
68.100000 0.203841
68.150000 0.162730
68.200000 0.125046
68.250000 0.138748
68.300000 0.142175
68.350000 0.107916
68.400000 0.090787
68.450000 0.094212
68.500000 0.114768
68.550000 0.173008
68.600000 0.241526
68.650000 0.275785
68.700000 0.313470
68.750000 0.371709
68.800000 0.395691
68.850000 0.392265
68.900000 0.409394
68.950000 0.433376
69.000000 0.453931
69.050000 0.484763
69.100000 0.498467
69.150000 0.495042
69.200000 0.525875
69.250000 0.560134
69.300000 0.532727
69.350000 0.484763
69.400000 0.467635
69.450000 0.440227
69.500000 0.385413
69.550000 0.344302
69.600000 0.327172
69.650000 0.286062
69.700000 0.210692
69.750000 0.138749
69.800000 0.070231
69.850000 -0.008564
69.900000 -0.080509
69.950000 -0.169581
70.000000 -0.282636
70.050000 -0.385412
70.100000 -0.457356
70.150000 -0.529300
70.200000 -0.604669
70.250000 -0.635503
70.300000 -0.625225
70.350000 -0.604669
70.400000 -0.577262
70.450000 -0.515596
70.500000 -0.426523
70.550000 -0.337449
70.600000 -0.251803
70.650000 -0.155878
70.700000 -0.059952
70.750000 0.011991
70.800000 0.097638
70.850000 0.207267
70.900000 0.299765
70.950000 0.340876
71.000000 0.371709
71.050000 0.395690
71.100000 0.402542
71.150000 0.402542
71.200000 0.368284
71.250000 0.279210
71.300000 0.190138
71.350000 0.128471
71.400000 0.042824
71.450000 -0.066804
71.500000 -0.128471
71.550000 -0.155878
71.600000 -0.196988
71.650000 -0.224396
71.700000 -0.196988
71.750000 -0.176433
71.800000 -0.183284
71.850000 -0.176433
71.900000 -0.155878
71.950000 -0.152451
72.000000 -0.125044
72.050000 -0.090786
72.100000 -0.094212
72.150000 -0.094212
72.200000 -0.056527
72.250000 -0.015416
72.300000 -0.005139
72.350000 0.015417
72.400000 0.059954
72.450000 0.087361
72.500000 0.101064
72.550000 0.107916
72.600000 0.097638
72.650000 0.080509
72.700000 0.063379
72.750000 0.029121
72.800000 -0.022268
72.850000 -0.049675
72.900000 -0.056527
72.950000 -0.087360
73.000000 -0.121618
73.050000 -0.128471
73.100000 -0.131897
73.150000 -0.135322
73.200000 -0.125044
73.250000 -0.101063
73.300000 -0.090785
73.350000 -0.094212
73.400000 -0.111341
73.450000 -0.138748
73.500000 -0.145599
73.550000 -0.162729
73.600000 -0.210692
73.650000 -0.251802
73.700000 -0.268932
73.750000 -0.289487
73.800000 -0.306616
73.850000 -0.306617
73.900000 -0.296339
73.950000 -0.262080
74.000000 -0.196989
74.050000 -0.128470
74.100000 -0.090785
74.150000 -0.039397
74.200000 0.035972
74.250000 0.104490
74.300000 0.135323
74.350000 0.128472
74.400000 0.118194
74.450000 0.114768
74.500000 0.097638
74.550000 0.073657
74.600000 0.059954
74.650000 0.029121
74.700000 -0.039397
74.750000 -0.104489
74.800000 -0.166155
74.850000 -0.248376
74.900000 -0.310042
74.950000 -0.334024
75.000000 -0.354579
75.050000 -0.368283
75.100000 -0.340875
75.150000 -0.316894
75.200000 -0.337450
75.250000 -0.320320
75.300000 -0.241525
75.350000 -0.200414
75.400000 -0.217543
75.450000 -0.220970
75.500000 -0.227821
75.550000 -0.268932
75.600000 -0.296339
75.650000 -0.292913
75.700000 -0.306617
75.750000 -0.323746
75.800000 -0.286061
75.850000 -0.224396
75.900000 -0.183285
75.950000 -0.131896
76.000000 -0.056527
76.050000 0.005139
76.100000 0.042824
76.150000 0.070231
76.200000 0.080508
76.250000 0.059953
76.300000 0.018843
76.350000 -0.032546
76.400000 -0.073656
76.450000 -0.111341
76.500000 -0.152452
76.550000 -0.179859
76.600000 -0.176433
76.650000 -0.176433
76.700000 -0.210692
76.750000 -0.244951
76.800000 -0.244951
76.850000 -0.244951
76.900000 -0.258655
76.950000 -0.258654
77.000000 -0.248377
77.050000 -0.217543
77.100000 -0.176433
77.150000 -0.145600
77.200000 -0.121619
77.250000 -0.070231
77.300000 -0.005138
77.350000 0.046250
77.400000 0.090786
77.450000 0.121620
77.500000 0.101064
77.550000 0.053102
77.600000 0.025694
77.650000 -0.015416
77.700000 -0.080508
77.750000 -0.159304
77.800000 -0.234673
77.850000 -0.310043
77.900000 -0.378561
77.950000 -0.429949
78.000000 -0.457356
78.050000 -0.464208
78.100000 -0.453930
78.150000 -0.443652
78.200000 -0.419671
78.250000 -0.381987
78.300000 -0.354579
78.350000 -0.337450
78.400000 -0.296339
78.450000 -0.248377
78.500000 -0.224395
78.550000 -0.220970
78.600000 -0.220969
78.650000 -0.227821
78.700000 -0.231248
78.750000 -0.241525
78.800000 -0.244951
78.850000 -0.244951
78.900000 -0.234673
78.950000 -0.231247
79.000000 -0.241525
79.050000 -0.248377
79.100000 -0.251803
79.150000 -0.268932
79.200000 -0.296339
79.250000 -0.310043
79.300000 -0.316894
79.350000 -0.313469
79.400000 -0.292913
79.450000 -0.262080
79.500000 -0.234673
79.550000 -0.220969
79.600000 -0.193563
79.650000 -0.152451
79.700000 -0.114766
79.750000 -0.090786
79.800000 -0.070230
79.850000 -0.059953
79.900000 -0.066805
79.950000 -0.090786
80.000000 -0.125044
80.050000 -0.169581
80.100000 -0.214118
80.150000 -0.244950
80.200000 -0.268932
80.250000 -0.286061
80.300000 -0.282636
80.350000 -0.265506
80.400000 -0.231248
80.450000 -0.155877
80.500000 -0.046250
80.550000 0.035972
80.600000 0.083934
80.650000 0.152453
80.700000 0.217544
80.750000 0.224396
80.800000 0.193563
80.850000 0.162731
80.900000 0.121619
80.950000 0.066805
81.000000 0.011991
81.050000 -0.022268
81.100000 -0.053101
81.150000 -0.097638
81.200000 -0.125044
81.250000 -0.138748
81.300000 -0.138748
81.350000 -0.142174
81.400000 -0.155877
81.450000 -0.159304
81.500000 -0.149026
81.550000 -0.138748
81.600000 -0.169581
81.650000 -0.210692
81.700000 -0.231247
81.750000 -0.248377
81.800000 -0.286062
81.850000 -0.316894
81.900000 -0.340876
81.950000 -0.381986
82.000000 -0.423097
82.050000 -0.443652
82.100000 -0.484763
82.150000 -0.549855
82.200000 -0.570410
82.250000 -0.553281
82.300000 -0.539577
82.350000 -0.519022
82.400000 -0.467634
82.450000 -0.419672
82.500000 -0.381987
82.550000 -0.334024
82.600000 -0.286062
82.650000 -0.238099
82.700000 -0.179859
82.750000 -0.104489
82.800000 -0.035971
82.850000 0.022269
82.900000 0.056527
82.950000 0.073657
83.000000 0.094212
83.050000 0.097638
83.100000 0.059954
83.150000 -0.008565
83.200000 -0.063379
83.250000 -0.114767
83.300000 -0.179859
83.350000 -0.214118
83.400000 -0.214118
83.450000 -0.207266
83.500000 -0.186710
83.550000 -0.131897
83.600000 -0.063378
83.650000 0.005139
83.700000 0.063380
83.750000 0.097638
83.800000 0.107916
83.850000 0.090787
83.900000 0.029120
83.950000 -0.049675
84.000000 -0.114767
84.050000 -0.169582
84.100000 -0.227822
84.150000 -0.262080
84.200000 -0.255229
84.250000 -0.220969
84.300000 -0.176433
84.350000 -0.114767
84.400000 -0.059953
84.450000 -0.032546
84.500000 -0.035972
84.550000 -0.042823
84.600000 -0.046249
84.650000 -0.066805
84.700000 -0.104490
84.750000 -0.142174
84.800000 -0.190137
84.850000 -0.251803
84.900000 -0.268932
84.950000 -0.248377
85.000000 -0.231247
85.050000 -0.193563
85.100000 -0.097637
85.150000 -0.022268
85.200000 0.011991
85.250000 0.046250
85.300000 0.083935
85.350000 0.094212
85.400000 0.083935
85.450000 0.059953
85.500000 0.015417
85.550000 -0.035971
85.600000 -0.083934
85.650000 -0.125045
85.700000 -0.135322
85.750000 -0.111341
85.800000 -0.083934
85.850000 -0.039397
85.900000 0.015417
85.950000 0.053102
86.000000 0.066805
86.050000 0.083935
86.100000 0.097638
86.150000 0.066805
86.200000 0.005139
86.250000 -0.059953
86.300000 -0.121619
86.350000 -0.207266
86.400000 -0.296339
86.450000 -0.347728
86.500000 -0.364857
86.550000 -0.364857
86.600000 -0.347728
86.650000 -0.296339
86.700000 -0.234673
86.750000 -0.179859
86.800000 -0.135323
86.850000 -0.101063
86.900000 -0.080508
86.950000 -0.077082
87.000000 -0.101064
87.050000 -0.125045
87.100000 -0.152451
87.150000 -0.217543
87.200000 -0.303191
87.250000 -0.337449
87.300000 -0.340876
87.350000 -0.364857
87.400000 -0.388838
87.450000 -0.368283
87.500000 -0.351153
87.550000 -0.378561
87.600000 -0.409394
87.650000 -0.405968
87.700000 -0.409394
87.750000 -0.440226
87.800000 -0.467633
87.850000 -0.481337
87.900000 -0.474486
87.950000 -0.453930
88.000000 -0.419671
88.050000 -0.375135
88.100000 -0.340876
88.150000 -0.303191
88.200000 -0.238099
88.250000 -0.186711
88.300000 -0.173007
88.350000 -0.179858
88.400000 -0.166155
88.450000 -0.152451
88.500000 -0.145600
88.550000 -0.138748
88.600000 -0.138748
88.650000 -0.142174
88.700000 -0.162729
88.750000 -0.183285
88.800000 -0.190137
88.850000 -0.176433
88.900000 -0.183285
88.950000 -0.227821
89.000000 -0.275784
89.050000 -0.323746
89.100000 -0.392264
89.150000 -0.460782
89.200000 -0.495041
89.250000 -0.525874
89.300000 -0.563558
89.350000 -0.577262
89.400000 -0.570410
89.450000 -0.546429
89.500000 -0.515596
89.550000 -0.481337
89.600000 -0.440226
89.650000 -0.378561
89.700000 -0.316895
89.750000 -0.268932
89.800000 -0.234673
89.850000 -0.193562
89.900000 -0.149026
89.950000 -0.121618
90.000000 -0.083934
90.050000 -0.018842
90.100000 0.039398
90.150000 0.073657
90.200000 0.107916
90.250000 0.135323
90.300000 0.118193
90.350000 0.053101
90.400000 -0.018842
90.450000 -0.070231
90.500000 -0.104489
90.550000 -0.169581
90.600000 -0.241525
90.650000 -0.268932
90.700000 -0.251802
90.750000 -0.234673
90.800000 -0.231247
90.850000 -0.196988
90.900000 -0.149026
90.950000 -0.135323
91.000000 -0.162730
91.050000 -0.176432
91.100000 -0.196988
91.150000 -0.238099
91.200000 -0.279209
91.250000 -0.286062
91.300000 -0.303191
91.350000 -0.327173
91.400000 -0.313468
91.450000 -0.248376
91.500000 -0.159304
91.550000 -0.066804
91.600000 0.032546
91.650000 0.135323
91.700000 0.244952
91.750000 0.327173
91.800000 0.358006
91.850000 0.347728
91.900000 0.320321
91.950000 0.268932
92.000000 0.190137
92.050000 0.121620
92.100000 0.053102
92.150000 -0.056527
92.200000 -0.166155
92.250000 -0.220969
92.300000 -0.268932
92.350000 -0.330598
92.400000 -0.361431
92.450000 -0.344302
92.500000 -0.351153
92.550000 -0.378560
92.600000 -0.378561
92.650000 -0.347728
92.700000 -0.327172
92.750000 -0.299765
92.800000 -0.272358
92.850000 -0.258654
92.900000 -0.231248
92.950000 -0.190136
93.000000 -0.155878
93.050000 -0.138748
93.100000 -0.114767
93.150000 -0.111342
93.200000 -0.128471
93.250000 -0.135322
93.300000 -0.138748
93.350000 -0.159304
93.400000 -0.186711
93.450000 -0.207266
93.500000 -0.234673
93.550000 -0.265506
93.600000 -0.272357
93.650000 -0.286062
93.700000 -0.303191
93.750000 -0.313468
93.800000 -0.306617
93.850000 -0.299765
93.900000 -0.303191
93.950000 -0.316894
94.000000 -0.320321
94.050000 -0.296339
94.100000 -0.268932
94.150000 -0.272358
94.200000 -0.265506
94.250000 -0.224396
94.300000 -0.203840
94.350000 -0.193563
94.400000 -0.159304
94.450000 -0.125045
94.500000 -0.125045
94.550000 -0.135323
94.600000 -0.145600
94.650000 -0.162730
94.700000 -0.186711
94.750000 -0.190136
94.800000 -0.200414
94.850000 -0.210692
94.900000 -0.217544
94.950000 -0.255228
95.000000 -0.306617
95.050000 -0.323746
95.100000 -0.320320
95.150000 -0.347727
95.200000 -0.395690
95.250000 -0.409394
95.300000 -0.399116
95.350000 -0.381987
95.400000 -0.337450
95.450000 -0.272358
95.500000 -0.203840
95.550000 -0.152452
95.600000 -0.104489
95.650000 -0.053101
95.700000 -0.005139
95.750000 0.022269
95.800000 0.035972
95.850000 0.053102
95.900000 0.056528
95.950000 0.049676
96.000000 0.046250
96.050000 0.063379
96.100000 0.077083
96.150000 0.087360
96.200000 0.118193
96.250000 0.159305
96.300000 0.169582
96.350000 0.142175
96.400000 0.097638
96.450000 0.042824
96.500000 -0.022268
96.550000 -0.094212
96.600000 -0.142174
96.650000 -0.142174
96.700000 -0.118193
96.750000 -0.083934
96.800000 -0.039397
96.850000 0.053102
96.900000 0.162730
96.950000 0.234674
97.000000 0.258655
97.050000 0.282636
97.100000 0.279210
97.150000 0.193563
97.200000 0.049676
97.250000 -0.083934
97.300000 -0.200414
97.350000 -0.334024
97.400000 -0.460781
97.450000 -0.549855
97.500000 -0.597817
97.550000 -0.628650
97.600000 -0.628650
97.650000 -0.570411
97.700000 -0.495041
97.750000 -0.433375
97.800000 -0.381987
97.850000 -0.340876
97.900000 -0.337450
97.950000 -0.378560
98.000000 -0.423097
98.050000 -0.467633
98.100000 -0.529299
98.150000 -0.580688
98.200000 -0.614947
98.250000 -0.662909
98.300000 -0.717724
98.350000 -0.728001
98.400000 -0.700594
98.450000 -0.686891
98.500000 -0.680039
98.550000 -0.635502
98.600000 -0.580688
98.650000 -0.539578
98.700000 -0.495040
98.750000 -0.429949
98.800000 -0.368283
98.850000 -0.303191
98.900000 -0.227822
98.950000 -0.193563
99.000000 -0.210692
99.050000 -0.214118
99.100000 -0.214118
99.150000 -0.241525
99.200000 -0.275783
99.250000 -0.306617
99.300000 -0.358005
99.350000 -0.388838
99.400000 -0.368282
99.450000 -0.340875
99.500000 -0.330598
99.550000 -0.282636
99.600000 -0.186711
99.650000 -0.107915
99.700000 -0.039397
99.750000 0.035972
99.800000 0.094213
99.850000 0.128471
99.900000 0.162730
99.950000 0.186712
100.000000 0.155878
100.050000 0.094213
100.100000 0.046250
100.150000 0.001714
100.200000 -0.056527
100.250000 -0.121619
100.300000 -0.173007
100.350000 -0.214118
100.400000 -0.248376
100.450000 -0.299765
100.500000 -0.344302
100.550000 -0.368283
100.600000 -0.381987
100.650000 -0.405967
100.700000 -0.399116
100.750000 -0.368283
100.800000 -0.334024
100.850000 -0.282636
100.900000 -0.190137
100.950000 -0.101063
101.000000 -0.039397
101.050000 0.035972
101.100000 0.142175
101.150000 0.224397
101.200000 0.289488
101.250000 0.337451
101.300000 0.337451
101.350000 0.275784
101.400000 0.210692
101.450000 0.145600
101.500000 0.056527
101.550000 -0.053101
101.600000 -0.152452
101.650000 -0.234673
101.700000 -0.299765
101.750000 -0.364857
101.800000 -0.416245
101.850000 -0.412819
101.900000 -0.368283
101.950000 -0.320320
102.000000 -0.258655
102.050000 -0.159303
102.100000 -0.066804
102.150000 -0.008564
102.200000 0.042824
102.250000 0.101065
102.300000 0.114767
102.350000 0.042824
102.400000 -0.066804
102.450000 -0.162729
102.500000 -0.262081
102.550000 -0.375134
102.600000 -0.477911
102.650000 -0.553281
102.700000 -0.584114
102.750000 -0.577262
102.800000 -0.525874
102.850000 -0.443653
102.900000 -0.320320
102.950000 -0.179859
103.000000 -0.053101
103.050000 0.066806
103.100000 0.159305
103.150000 0.179859
103.200000 0.162730
103.250000 0.135323
103.300000 0.063379
103.350000 -0.059953
103.400000 -0.162729
103.450000 -0.238099
103.500000 -0.310043
103.550000 -0.385412
103.600000 -0.433374
103.650000 -0.467633
103.700000 -0.471060
103.750000 -0.447079
103.800000 -0.429949
103.850000 -0.426523
103.900000 -0.412819
103.950000 -0.381986
104.000000 -0.364857
104.050000 -0.378560
104.100000 -0.388838
104.150000 -0.375135
104.200000 -0.347727
104.250000 -0.327172
104.300000 -0.310042
104.350000 -0.265506
104.400000 -0.196989
104.450000 -0.131896
104.500000 -0.080508
104.550000 -0.015416
104.600000 0.073657
104.650000 0.159304
104.700000 0.203841
104.750000 0.207267
104.800000 0.203841
104.850000 0.176433
104.900000 0.125045
104.950000 0.035973
105.000000 -0.059953
105.050000 -0.138748
105.100000 -0.196989
105.150000 -0.262080
105.200000 -0.340876
105.250000 -0.381986
105.300000 -0.385412
105.350000 -0.392265
105.400000 -0.385412
105.450000 -0.344302
105.500000 -0.292914
105.550000 -0.272358
105.600000 -0.258654
105.650000 -0.238099
105.700000 -0.238099
105.750000 -0.238099
105.800000 -0.231247
105.850000 -0.231248
105.900000 -0.244951
105.950000 -0.265506
106.000000 -0.282635
106.050000 -0.299765
106.100000 -0.310043
106.150000 -0.310042
106.200000 -0.282635
106.250000 -0.251802
106.300000 -0.227821
106.350000 -0.183284
106.400000 -0.104490
106.450000 -0.029119
106.500000 0.011991
106.550000 0.070232
106.600000 0.159304
106.650000 0.224396
106.700000 0.265507
106.750000 0.303192
106.800000 0.320321
106.850000 0.303192
106.900000 0.255229
106.950000 0.183285
107.000000 0.070231
107.050000 -0.066805
107.100000 -0.190137
107.150000 -0.320320
107.200000 -0.460782
107.250000 -0.570410
107.300000 -0.632077
107.350000 -0.683465
107.400000 -0.717724
107.450000 -0.700594
107.500000 -0.652632
107.550000 -0.580688
107.600000 -0.474485
107.650000 -0.358005
107.700000 -0.265506
107.750000 -0.179859
107.800000 -0.111341
107.850000 -0.083934
107.900000 -0.080508
107.950000 -0.083934
108.000000 -0.107915
108.050000 -0.142174
108.100000 -0.162730
108.150000 -0.183285
108.200000 -0.224395
108.250000 -0.248377
108.300000 -0.255229
108.350000 -0.275784
108.400000 -0.282636
108.450000 -0.279210
108.500000 -0.296339
108.550000 -0.323746
108.600000 -0.327172
108.650000 -0.351154
108.700000 -0.412819
108.750000 -0.467634
108.800000 -0.498467
108.850000 -0.529299
108.900000 -0.532726
108.950000 -0.515597
109.000000 -0.512171
109.050000 -0.453930
109.100000 -0.310042
109.150000 -0.186711
109.200000 -0.121619
109.250000 -0.025694
109.300000 0.111342
109.350000 0.220971
109.400000 0.286062
109.450000 0.330599
109.500000 0.364858
109.550000 0.392265
109.600000 0.399116
109.650000 0.368284
109.700000 0.340877
109.750000 0.344302
109.800000 0.344303
109.850000 0.316895
109.900000 0.299765
109.950000 0.286062
110.000000 0.251804
110.050000 0.203841
110.100000 0.155878
110.150000 0.077083
110.200000 -0.001712
110.250000 -0.035971
110.300000 -0.049675
110.350000 -0.094212
110.400000 -0.121619
110.450000 -0.080508
110.500000 -0.029119
110.550000 -0.001713
110.600000 0.039398
110.650000 0.087361
110.700000 0.104490
110.750000 0.090786
110.800000 0.046250
110.850000 -0.049675
110.900000 -0.159303
110.950000 -0.244951
111.000000 -0.320320
111.050000 -0.405968
111.100000 -0.464207
111.150000 -0.484763
111.200000 -0.464208
111.250000 -0.429949
111.300000 -0.399116
111.350000 -0.361432
111.400000 -0.310043
111.450000 -0.258654
111.500000 -0.220970
111.550000 -0.210692
111.600000 -0.217544
111.650000 -0.234673
111.700000 -0.224395
111.750000 -0.207266
111.800000 -0.217544
111.850000 -0.220970
111.900000 -0.186710
111.950000 -0.152452
112.000000 -0.135322
112.050000 -0.094211
112.100000 -0.039397
112.150000 -0.011990
112.200000 -0.005138
112.250000 0.015417
112.300000 0.042824
112.350000 0.066805
112.400000 0.090786
112.450000 0.101064
112.500000 0.097639
112.550000 0.094212
112.600000 0.087360
112.650000 0.053101
112.700000 0.018842
112.750000 -0.011990
112.800000 -0.039398
112.850000 -0.066804
112.900000 -0.097637
112.950000 -0.135322
113.000000 -0.149026
113.050000 -0.131897
113.100000 -0.118193
113.150000 -0.114767
113.200000 -0.083934
113.250000 -0.025693
113.300000 0.032547
113.350000 0.046250
113.400000 0.046250
113.450000 0.059954
113.500000 0.053101
113.550000 0.018843
113.600000 -0.015416
113.650000 -0.042823
113.700000 -0.073656
113.750000 -0.107915
113.800000 -0.125045
113.850000 -0.111341
113.900000 -0.070230
113.950000 -0.029120
114.000000 -0.005139
114.050000 0.015417
114.100000 0.056528
114.150000 0.083935
114.200000 0.083935
114.250000 0.053102
114.300000 0.001713
114.350000 -0.063379
114.400000 -0.142174
114.450000 -0.220970
114.500000 -0.279209
114.550000 -0.320320
114.600000 -0.340875
114.650000 -0.337450
114.700000 -0.299765
114.750000 -0.244950
114.800000 -0.203840
114.850000 -0.159304
114.900000 -0.094211
114.950000 -0.042824
115.000000 -0.032546
115.050000 -0.025693
115.100000 -0.025694
115.150000 -0.046249
115.200000 -0.070230
115.250000 -0.080508
115.300000 -0.101064
115.350000 -0.111341
115.400000 -0.083934
115.450000 -0.032545
115.500000 0.005139
115.550000 0.032546
115.600000 0.046250
115.650000 0.042824
115.700000 0.046249
115.750000 0.046250
115.800000 -0.008564
115.850000 -0.097637
115.900000 -0.166156
115.950000 -0.227821
116.000000 -0.323746
116.050000 -0.399116
116.100000 -0.423097
116.150000 -0.419671
116.200000 -0.423097
116.250000 -0.381986
116.300000 -0.310042
116.350000 -0.255228
116.400000 -0.203840
116.450000 -0.142174
116.500000 -0.118193
116.550000 -0.152451
116.600000 -0.183285
116.650000 -0.193562
116.700000 -0.224396
116.750000 -0.262080
116.800000 -0.272358
116.850000 -0.275784
116.900000 -0.289487
116.950000 -0.268932
117.000000 -0.200414
117.050000 -0.128471
117.100000 -0.087360
117.150000 -0.070230
117.200000 -0.053101
117.250000 -0.032545
117.300000 -0.046249
117.350000 -0.104489
117.400000 -0.159304
117.450000 -0.190136
117.500000 -0.224395
117.550000 -0.272357
117.600000 -0.306617
117.650000 -0.340876
117.700000 -0.368283
117.750000 -0.364857
117.800000 -0.337449
117.850000 -0.320320
117.900000 -0.296340
117.950000 -0.268932
118.000000 -0.286061
118.050000 -0.334024
118.100000 -0.358005
118.150000 -0.388838
118.200000 -0.471059
118.250000 -0.543004
118.300000 -0.590966
118.350000 -0.659483
118.400000 -0.707446
118.450000 -0.693742
118.500000 -0.666335
118.550000 -0.649206
118.600000 -0.601243
118.650000 -0.505318
118.700000 -0.409393
118.750000 -0.323746
118.800000 -0.234674
118.850000 -0.166155
118.900000 -0.149026
118.950000 -0.176433
119.000000 -0.190136
119.050000 -0.207266
119.100000 -0.241525
119.150000 -0.265506
119.200000 -0.286062
119.250000 -0.306617
119.300000 -0.296339
119.350000 -0.251802
119.400000 -0.176433
119.450000 -0.090786
119.500000 -0.008565
119.550000 0.066805
119.600000 0.128471
119.650000 0.159304
119.700000 0.162730
119.750000 0.145601
119.800000 0.114768
119.850000 0.049675
119.900000 -0.035971
119.950000 -0.135323
120.000000 -0.255228
120.050000 -0.388838
120.100000 -0.495041
120.150000 -0.584114
120.200000 -0.652632
120.250000 -0.697168
120.300000 -0.704021
120.350000 -0.710872
120.400000 -0.707446
120.450000 -0.669761
120.500000 -0.614947
120.550000 -0.563558
120.600000 -0.505318
120.650000 -0.433375
120.700000 -0.371709
120.750000 -0.323746
120.800000 -0.303191
120.850000 -0.299765
120.900000 -0.299765
120.950000 -0.313469
121.000000 -0.358005
121.050000 -0.426523
121.100000 -0.488189
121.150000 -0.529300
121.200000 -0.539578
121.250000 -0.522448
121.300000 -0.508744
121.350000 -0.498466
121.400000 -0.436801
121.450000 -0.337450
121.500000 -0.248377
121.550000 -0.169581
121.600000 -0.114767
121.650000 -0.087359
121.700000 -0.077082
121.750000 -0.070231
121.800000 -0.087360
121.850000 -0.135322
121.900000 -0.183285
121.950000 -0.231248
122.000000 -0.275784
122.050000 -0.306616
122.100000 -0.320321
122.150000 -0.320320
122.200000 -0.299765
122.250000 -0.244951
122.300000 -0.173007
122.350000 -0.101064
122.400000 -0.032545
122.450000 0.025695
122.500000 0.077083
122.550000 0.135323
122.600000 0.159305
122.650000 0.149027
122.700000 0.155878
122.750000 0.176433
122.800000 0.162730
122.850000 0.125045
122.900000 0.090787
122.950000 0.046250
123.000000 -0.018842
123.050000 -0.070231
123.100000 -0.118193
123.150000 -0.166156
123.200000 -0.196989
123.250000 -0.224395
123.300000 -0.272358
123.350000 -0.330598
123.400000 -0.392264
123.450000 -0.457356
123.500000 -0.495041
123.550000 -0.505319
123.600000 -0.515596
123.650000 -0.505319
123.700000 -0.457356
123.750000 -0.416246
123.800000 -0.388838
123.850000 -0.358005
123.900000 -0.344302
123.950000 -0.344301
124.000000 -0.334023
124.050000 -0.354579
124.100000 -0.395690
124.150000 -0.419671
124.200000 -0.436801
124.250000 -0.474486
124.300000 -0.488189
124.350000 -0.440226
124.400000 -0.375134
124.450000 -0.303191
124.500000 -0.203841
124.550000 -0.101064
124.600000 -0.025693
124.650000 0.018843
124.700000 0.049675
124.750000 0.063379
124.800000 0.070231
124.850000 0.056527
124.900000 0.015416
124.950000 -0.042823
125.000000 -0.087360
125.050000 -0.121618
125.100000 -0.128470
125.150000 -0.104490
125.200000 -0.077082
125.250000 -0.042824
125.300000 0.005140
125.350000 0.042824
125.400000 0.049676
125.450000 0.053102
125.500000 0.059954
125.550000 0.039398
125.600000 0.005139
125.650000 0.008565
125.700000 0.032546
125.750000 0.022269
125.800000 0.018842
125.850000 0.056528
125.900000 0.094212
125.950000 0.107916
126.000000 0.118193
126.050000 0.114768
126.100000 0.080509
126.150000 0.042824
126.200000 -0.015416
126.250000 -0.104489
126.300000 -0.186710
126.350000 -0.248376
126.400000 -0.299765
126.450000 -0.323746
126.500000 -0.296339
126.550000 -0.251803
126.600000 -0.203840
126.650000 -0.155878
126.700000 -0.114767
126.750000 -0.080508
126.800000 -0.049676
126.850000 -0.029120
126.900000 -0.039397
126.950000 -0.066805
127.000000 -0.111341
127.050000 -0.155878
127.100000 -0.166155
127.150000 -0.138748
127.200000 -0.083934
127.250000 0.001713
127.300000 0.104490
127.350000 0.183285
127.400000 0.227822
127.450000 0.262081
127.500000 0.275785
127.550000 0.238100
127.600000 0.166156
127.650000 0.083935
127.700000 0.005139
127.750000 -0.077082
127.800000 -0.162729
127.850000 -0.217543
127.900000 -0.234673
127.950000 -0.248377
128.000000 -0.251802
128.050000 -0.203840
128.100000 -0.128470
128.150000 -0.080509
128.200000 -0.066804
128.250000 -0.042823
128.300000 -0.015416
128.350000 -0.035972
128.400000 -0.063379
128.450000 -0.070230
128.500000 -0.101064
128.550000 -0.179858
128.600000 -0.217543
128.650000 -0.207266
128.700000 -0.248376
128.750000 -0.334024
128.800000 -0.351153
128.850000 -0.323746
128.900000 -0.344302
128.950000 -0.375135
129.000000 -0.364857
129.050000 -0.340875
129.100000 -0.327172
129.150000 -0.310042
129.200000 -0.310042
129.250000 -0.337450
129.300000 -0.375135
129.350000 -0.429949
129.400000 -0.508745
129.450000 -0.573836
129.500000 -0.604669
129.550000 -0.635502
129.600000 -0.645780
129.650000 -0.604670
129.700000 -0.546429
129.750000 -0.471060
129.800000 -0.347728
129.850000 -0.200414
129.900000 -0.056527
129.950000 0.053102
130.000000 0.135323
130.050000 0.200415
130.100000 0.262081
130.150000 0.296340
130.200000 0.286062
130.250000 0.258655
130.300000 0.217544
130.350000 0.145601
130.400000 0.077083
130.450000 0.022269
130.500000 -0.053101
130.550000 -0.145600
130.600000 -0.214118
130.650000 -0.255229
130.700000 -0.310043
130.750000 -0.351154
130.800000 -0.361431
130.850000 -0.368283
130.900000 -0.351153
130.950000 -0.286062
131.000000 -0.234673
131.050000 -0.207266
131.100000 -0.149026
131.150000 -0.066804
131.200000 -0.005138
131.250000 0.042824
131.300000 0.090787
131.350000 0.097638
131.400000 0.066805
131.450000 0.046250
131.500000 0.015416
131.550000 -0.029119
131.600000 -0.059953
131.650000 -0.083934
131.700000 -0.107915
131.750000 -0.114767
131.800000 -0.111341
131.850000 -0.128470
131.900000 -0.138748
131.950000 -0.101063
132.000000 -0.066805
132.050000 -0.073656
132.100000 -0.073657
132.150000 -0.073656
132.200000 -0.114767
132.250000 -0.166155
132.300000 -0.210692
132.350000 -0.265506
132.400000 -0.316894
132.450000 -0.313468
132.500000 -0.286061
132.550000 -0.255228
132.600000 -0.193563
132.650000 -0.104489
132.700000 -0.032545
132.750000 0.032546
132.800000 0.077083
132.850000 0.097638
132.900000 0.121620
132.950000 0.145600
133.000000 0.118194
133.050000 0.022268
133.100000 -0.073657
133.150000 -0.173007
133.200000 -0.286061
133.250000 -0.381986
133.300000 -0.443653
133.350000 -0.508744
133.400000 -0.522448
133.450000 -0.464207
133.500000 -0.381986
133.550000 -0.310042
133.600000 -0.203840
133.650000 -0.059953
133.700000 0.077083
133.750000 0.186712
133.800000 0.282636
133.850000 0.334024
133.900000 0.337450
133.950000 0.306618
134.000000 0.268932
134.050000 0.227822
134.100000 0.176434
134.150000 0.125045
134.200000 0.059954
134.250000 0.005140
134.300000 -0.029120
134.350000 -0.077082
134.400000 -0.162729
134.450000 -0.244951
134.500000 -0.296339
134.550000 -0.351153
134.600000 -0.433374
134.650000 -0.501893
134.700000 -0.515596
134.750000 -0.505318
134.800000 -0.474485
134.850000 -0.395690
134.900000 -0.265506
134.950000 -0.101063
135.000000 0.077083
135.050000 0.234674
135.100000 0.361432
135.150000 0.457357
135.200000 0.505319
135.250000 0.488189
135.300000 0.416246
135.350000 0.310044
135.400000 0.183285
135.450000 0.053102
135.500000 -0.077082
135.550000 -0.196988
135.600000 -0.289487
135.650000 -0.334024
135.700000 -0.347728
135.750000 -0.347728
135.800000 -0.323746
135.850000 -0.275784
135.900000 -0.224395
135.950000 -0.207266
136.000000 -0.217544
136.050000 -0.238099
136.100000 -0.268932
136.150000 -0.327172
136.200000 -0.416245
136.250000 -0.484764
136.300000 -0.529300
136.350000 -0.584114
136.400000 -0.652631
136.450000 -0.680039
136.500000 -0.652631
136.550000 -0.614947
136.600000 -0.577262
136.650000 -0.515597
136.700000 -0.436800
136.750000 -0.395690
136.800000 -0.381987
136.850000 -0.371709
136.900000 -0.388838
136.950000 -0.440226
137.000000 -0.484763
137.050000 -0.512170
137.100000 -0.553281
137.150000 -0.601243
137.200000 -0.632076
137.250000 -0.642354
137.300000 -0.614947
137.350000 -0.560133
137.400000 -0.498466
137.450000 -0.440226
137.500000 -0.371709
137.550000 -0.313468
137.600000 -0.299765
137.650000 -0.310043
137.700000 -0.303191
137.750000 -0.292913
137.800000 -0.292913
137.850000 -0.299765
137.900000 -0.310042
137.950000 -0.303191
138.000000 -0.279210
138.050000 -0.251802
138.100000 -0.210692
138.150000 -0.149027
138.200000 -0.101064
138.250000 -0.080508
138.300000 -0.080508
138.350000 -0.094212
138.400000 -0.121619
138.450000 -0.138749
138.500000 -0.145600
138.550000 -0.179859
138.600000 -0.224395
138.650000 -0.234674
138.700000 -0.207266
138.750000 -0.186711
138.800000 -0.162729
138.850000 -0.121619
138.900000 -0.097638
138.950000 -0.090786
139.000000 -0.094212
139.050000 -0.104489
139.100000 -0.121619
139.150000 -0.159304
139.200000 -0.217544
139.250000 -0.265506
139.300000 -0.286062
139.350000 -0.303191
139.400000 -0.313469
139.450000 -0.296339
139.500000 -0.258654
139.550000 -0.227821
139.600000 -0.196988
139.650000 -0.152452
139.700000 -0.118193
139.750000 -0.114767
139.800000 -0.128470
139.850000 -0.135322
139.900000 -0.152452
139.950000 -0.186710
140.000000 -0.241525
140.050000 -0.299765
140.100000 -0.351154
140.150000 -0.385412
140.200000 -0.423097
140.250000 -0.471059
140.300000 -0.488189
140.350000 -0.471060
140.400000 -0.426523
140.450000 -0.378561
140.500000 -0.340876
140.550000 -0.296339
140.600000 -0.220969
140.650000 -0.111341
140.700000 -0.015416
140.750000 0.022269
140.800000 0.011991
140.850000 0.018843
140.900000 0.035972
140.950000 0.001713
141.000000 -0.087360
141.050000 -0.145600
141.100000 -0.162730
141.150000 -0.203840
141.200000 -0.255228
141.250000 -0.258655
141.300000 -0.210692
141.350000 -0.159303
141.400000 -0.121618
141.450000 -0.046249
141.500000 0.053101
141.550000 0.131897
141.600000 0.176434
141.650000 0.227822
141.700000 0.282636
141.750000 0.279210
141.800000 0.227822
141.850000 0.186711
141.900000 0.149027
141.950000 0.056528
142.000000 -0.049675
142.050000 -0.111341
142.100000 -0.159304
142.150000 -0.241524
142.200000 -0.289487
142.250000 -0.289487
142.300000 -0.286062
142.350000 -0.282636
142.400000 -0.251803
142.450000 -0.193563
142.500000 -0.145600
142.550000 -0.121619
142.600000 -0.104489
142.650000 -0.083934
142.700000 -0.080508
142.750000 -0.101064
142.800000 -0.135322
142.850000 -0.169581
142.900000 -0.203840
142.950000 -0.244951
143.000000 -0.272358
143.050000 -0.275784
143.100000 -0.265506
143.150000 -0.238099
143.200000 -0.207266
143.250000 -0.179859
143.300000 -0.155877
143.350000 -0.118193
143.400000 -0.077082
143.450000 -0.066804
143.500000 -0.073656
143.550000 -0.077082
143.600000 -0.083934
143.650000 -0.104489
143.700000 -0.121619
143.750000 -0.135322
143.800000 -0.155877
143.850000 -0.169581
143.900000 -0.176433
143.950000 -0.179859
144.000000 -0.155878
144.050000 -0.114767
144.100000 -0.090785
144.150000 -0.083934
144.200000 -0.056527
144.250000 -0.035971
144.300000 -0.032546
144.350000 -0.046249
144.400000 -0.056527
144.450000 -0.059953
144.500000 -0.066805
144.550000 -0.063379
144.600000 -0.053101
144.650000 -0.035971
144.700000 -0.025694
144.750000 -0.015416
144.800000 0.008565
144.850000 0.046250
144.900000 0.073657
144.950000 0.066805
145.000000 0.029121
145.050000 -0.025694
145.100000 -0.101063
145.150000 -0.214118
145.200000 -0.344302
145.250000 -0.457356
145.300000 -0.549855
145.350000 -0.645780
145.400000 -0.717723
145.450000 -0.717724
145.500000 -0.656058
145.550000 -0.584114
145.600000 -0.512170
145.650000 -0.405968
145.700000 -0.248377
145.750000 -0.087360
145.800000 0.039398
145.850000 0.149026
145.900000 0.244952
145.950000 0.303192
146.000000 0.310043
146.050000 0.292914
146.100000 0.238100
146.150000 0.128471
146.200000 0.005139
146.250000 -0.111341
146.300000 -0.234673
146.350000 -0.358005
146.400000 -0.450504
146.450000 -0.536151
146.500000 -0.608095
146.550000 -0.638928
146.600000 -0.625224
146.650000 -0.601244
146.700000 -0.560133
146.750000 -0.501892
146.800000 -0.464207
146.850000 -0.429948
146.900000 -0.399116
146.950000 -0.402542
147.000000 -0.426523
147.050000 -0.412819
147.100000 -0.405967
147.150000 -0.457356
147.200000 -0.501893
147.250000 -0.508744
147.300000 -0.525874
147.350000 -0.549855
147.400000 -0.543003
147.450000 -0.522448
147.500000 -0.488189
147.550000 -0.429949
147.600000 -0.361431
147.650000 -0.279210
147.700000 -0.176433
147.750000 -0.073657
147.800000 -0.015416
147.850000 0.035972
147.900000 0.111342
147.950000 0.159304
148.000000 0.131897
148.050000 0.090787
148.100000 0.097638
148.150000 0.080509
148.200000 0.025695
148.250000 -0.018842
148.300000 -0.046249
148.350000 -0.087359
148.400000 -0.138748
148.450000 -0.162730
148.500000 -0.179859
148.550000 -0.200414
148.600000 -0.224395
148.650000 -0.224395
148.700000 -0.200414
148.750000 -0.155878
148.800000 -0.131896
148.850000 -0.121619
148.900000 -0.104489
148.950000 -0.111341
149.000000 -0.166156
149.050000 -0.217544
149.100000 -0.275784
149.150000 -0.388838
149.200000 -0.532726
149.250000 -0.628650
149.300000 -0.707445
149.350000 -0.789667
149.400000 -0.799945
149.450000 -0.745131
149.500000 -0.697168
149.550000 -0.632076
149.600000 -0.495041
149.650000 -0.340876
149.700000 -0.248377
149.750000 -0.179859
149.800000 -0.101063
149.850000 -0.029119
149.900000 -0.005139
149.950000 -0.049675
150.000000 -0.101063
150.050000 -0.118193
150.100000 -0.155877
150.150000 -0.238099
150.200000 -0.306617
150.250000 -0.320320
150.300000 -0.347727
150.350000 -0.409393
150.400000 -0.457356
150.450000 -0.467633
150.500000 -0.477911
150.550000 -0.501893
150.600000 -0.515596
150.650000 -0.505318
150.700000 -0.471059
150.750000 -0.409393
150.800000 -0.340876
150.850000 -0.272358
150.900000 -0.190136
150.950000 -0.083934
151.000000 0.015417
151.050000 0.097638
151.100000 0.186712
151.150000 0.255229
151.200000 0.275785
151.250000 0.275784
151.300000 0.262081
151.350000 0.190138
151.400000 0.087361
151.450000 -0.011991
151.500000 -0.125044
151.550000 -0.275784
151.600000 -0.416245
151.650000 -0.543003
151.700000 -0.690316
151.750000 -0.827352
151.800000 -0.882166
151.850000 -0.882166
151.900000 -0.871889
151.950000 -0.844482
152.000000 -0.769112
152.050000 -0.656057
152.100000 -0.546429
152.150000 -0.471059
152.200000 -0.402541
152.250000 -0.344301
152.300000 -0.313469
152.350000 -0.320320
152.400000 -0.337450
152.450000 -0.358005
152.500000 -0.378560
152.550000 -0.412820
152.600000 -0.453930
152.650000 -0.467633
152.700000 -0.412819
152.750000 -0.340875
152.800000 -0.275784
152.850000 -0.186711
152.900000 -0.070231
152.950000 0.035972
153.000000 0.128472
153.050000 0.224396
153.100000 0.313469
153.150000 0.388839
153.200000 0.457357
153.250000 0.515597
153.300000 0.546430
153.350000 0.556707
153.400000 0.563560
153.450000 0.539578
153.500000 0.495042
153.550000 0.423097
153.600000 0.327173
153.650000 0.214118
153.700000 0.107916
153.750000 -0.005139
153.800000 -0.118192
153.850000 -0.210692
153.900000 -0.272358
153.950000 -0.292913
154.000000 -0.289488
154.050000 -0.262080
154.100000 -0.227821
154.150000 -0.193562
154.200000 -0.155877
154.250000 -0.125044
154.300000 -0.121619
154.350000 -0.138748
154.400000 -0.166155
154.450000 -0.190136
154.500000 -0.193562
154.550000 -0.196988
154.600000 -0.210692
154.650000 -0.186711
154.700000 -0.101063
154.750000 -0.011990
154.800000 0.042824
154.850000 0.090787
154.900000 0.155878
154.950000 0.200415
155.000000 0.214118
155.050000 0.200415
155.100000 0.152453
155.150000 0.066805
155.200000 -0.022268
155.250000 -0.101064
155.300000 -0.193562
155.350000 -0.289487
155.400000 -0.351153
155.450000 -0.358005
155.500000 -0.330598
155.550000 -0.296339
155.600000 -0.251802
155.650000 -0.196988
155.700000 -0.149026
155.750000 -0.118193
155.800000 -0.094212
155.850000 -0.087360
155.900000 -0.107915
155.950000 -0.149026
156.000000 -0.196988
156.050000 -0.238099
156.100000 -0.286062
156.150000 -0.327172
156.200000 -0.327172
156.250000 -0.296339
156.300000 -0.265506
156.350000 -0.220970
156.400000 -0.162729
156.450000 -0.111341
156.500000 -0.090786
156.550000 -0.077082
156.600000 -0.053101
156.650000 -0.053101
156.700000 -0.111341
156.750000 -0.227822
156.800000 -0.361431
156.850000 -0.477912
156.900000 -0.577262
156.950000 -0.662909
157.000000 -0.734853
157.050000 -0.769112
157.100000 -0.751982
157.150000 -0.680039
157.200000 -0.590966
157.250000 -0.498466
157.300000 -0.399116
157.350000 -0.282635
157.400000 -0.135322
157.450000 0.022268
157.500000 0.152453
157.550000 0.224396
157.600000 0.244952
157.650000 0.255229
157.700000 0.248378
157.750000 0.193563
157.800000 0.118194
157.850000 0.039398
157.900000 -0.056527
157.950000 -0.183285
158.000000 -0.303191
158.050000 -0.385413
158.100000 -0.447078
158.150000 -0.495040
158.200000 -0.515596
158.250000 -0.519022
158.300000 -0.495041
158.350000 -0.447078
158.400000 -0.395690
158.450000 -0.375134
158.500000 -0.371708
158.550000 -0.395690
158.600000 -0.450504
158.650000 -0.508744
158.700000 -0.543004
158.750000 -0.584114
158.800000 -0.628650
158.850000 -0.645780
158.900000 -0.628650
158.950000 -0.580688
159.000000 -0.505319
159.050000 -0.423097
159.100000 -0.344302
159.150000 -0.265506
159.200000 -0.159303
159.250000 -0.056527
159.300000 -0.008565
159.350000 -0.008564
159.400000 0.001713
159.450000 0.042824
159.500000 0.059954
159.550000 0.046250
159.600000 0.039398
159.650000 0.059954
159.700000 0.077083
159.750000 0.104490
159.800000 0.131897
159.850000 0.152452
159.900000 0.183285
159.950000 0.220970
160.000000 0.220971
160.050000 0.214118
160.100000 0.220970
160.150000 0.200415
160.200000 0.145601
160.250000 0.104490
160.300000 0.094213
160.350000 0.073657
160.400000 0.032546
160.450000 0.005140
160.500000 -0.029119
160.550000 -0.070230
160.600000 -0.107915
160.650000 -0.145600
160.700000 -0.176433
160.750000 -0.193563
160.800000 -0.196988
160.850000 -0.196989
160.900000 -0.207266
160.950000 -0.220970
161.000000 -0.231248
161.050000 -0.227821
161.100000 -0.231247
161.150000 -0.251803
161.200000 -0.275783
161.250000 -0.289487
161.300000 -0.289487
161.350000 -0.289488
161.400000 -0.292913
161.450000 -0.279210
161.500000 -0.241525
161.550000 -0.203840
161.600000 -0.162729
161.650000 -0.118193
161.700000 -0.077082
161.750000 -0.056527
161.800000 -0.056527
161.850000 -0.063379
161.900000 -0.077082
161.950000 -0.104489
162.000000 -0.131897
162.050000 -0.142174
162.100000 -0.149026
162.150000 -0.162730
162.200000 -0.159304
162.250000 -0.135322
162.300000 -0.118193
162.350000 -0.083934
162.400000 -0.039398
162.450000 0.008565
162.500000 0.018843
162.550000 -0.005139
162.600000 -0.042823
162.650000 -0.077082
162.700000 -0.114767
162.750000 -0.166156
162.800000 -0.220969
162.850000 -0.255228
162.900000 -0.279210
162.950000 -0.313468
163.000000 -0.306617
163.050000 -0.251803
163.100000 -0.186710
163.150000 -0.135322
163.200000 -0.066805
163.250000 0.011991
163.300000 0.066805
163.350000 0.090786
163.400000 0.104490
163.450000 0.104490
163.500000 0.097638
163.550000 0.066805
163.600000 -0.001713
163.650000 -0.097638
163.700000 -0.179859
163.750000 -0.248377
163.800000 -0.310042
163.850000 -0.347728
163.900000 -0.361431
163.950000 -0.378560
164.000000 -0.368282
164.050000 -0.323746
164.100000 -0.255228
164.150000 -0.196989
164.200000 -0.145600
164.250000 -0.077083
164.300000 -0.025694
164.350000 -0.018842
164.400000 -0.018842
164.450000 -0.015416
164.500000 -0.059953
164.550000 -0.149026
164.600000 -0.203840
164.650000 -0.227821
164.700000 -0.282636
164.750000 -0.340876
164.800000 -0.351153
164.850000 -0.327172
164.900000 -0.306617
164.950000 -0.289487
165.000000 -0.248377
165.050000 -0.173007
165.100000 -0.101063
165.150000 -0.032546
165.200000 0.029121
165.250000 0.080509
165.300000 0.101064
165.350000 0.094213
165.400000 0.080509
165.450000 0.073657
165.500000 0.056528
165.550000 0.022269
165.600000 -0.001712
165.650000 -0.022268
165.700000 -0.066805
165.750000 -0.128470
165.800000 -0.162729
165.850000 -0.179859
165.900000 -0.214118
165.950000 -0.238099
166.000000 -0.238099
166.050000 -0.231247
166.100000 -0.217543
166.150000 -0.176433
166.200000 -0.135322
166.250000 -0.118193
166.300000 -0.097637
166.350000 -0.063379
166.400000 -0.035972
166.450000 -0.025694
166.500000 -0.015416
166.550000 -0.018842
166.600000 -0.025693
166.650000 -0.015416
166.700000 0.025695
166.750000 0.056528
166.800000 0.066805
166.850000 0.077083
166.900000 0.090786
166.950000 0.077083
167.000000 0.018842
167.050000 -0.022268
167.100000 -0.046249
167.150000 -0.107915
167.200000 -0.190136
167.250000 -0.227822
167.300000 -0.231247
167.350000 -0.244950
167.400000 -0.234673
167.450000 -0.186710
167.500000 -0.142174
167.550000 -0.090785
167.600000 -0.005138
167.650000 0.080508
167.700000 0.125045
167.750000 0.138749
167.800000 0.155878
167.850000 0.173007
167.900000 0.169582
167.950000 0.155879
168.000000 0.138749
168.050000 0.135323
168.100000 0.128471
168.150000 0.118193
168.200000 0.125045
168.250000 0.131897
168.300000 0.114767
168.350000 0.083935
168.400000 0.063379
168.450000 0.046249
168.500000 0.025694
168.550000 -0.001713
168.600000 -0.029119
168.650000 -0.046249
168.700000 -0.049675
168.750000 -0.056527
168.800000 -0.090786
168.850000 -0.118192
168.900000 -0.111341
168.950000 -0.101063
169.000000 -0.111341
169.050000 -0.111341
169.100000 -0.090786
169.150000 -0.087360
169.200000 -0.094211
169.250000 -0.087360
169.300000 -0.080508
169.350000 -0.094212
169.400000 -0.111341
169.450000 -0.114766
169.500000 -0.131896
169.550000 -0.162729
169.600000 -0.193563
169.650000 -0.224396
169.700000 -0.251803
169.750000 -0.268932
169.800000 -0.286061
169.850000 -0.299765
169.900000 -0.299765
169.950000 -0.296339
170.000000 -0.299765
170.050000 -0.292913
170.100000 -0.275784
170.150000 -0.258655
170.200000 -0.244951
170.250000 -0.244951
170.300000 -0.286062
170.350000 -0.327172
170.400000 -0.344301
170.450000 -0.361431
170.500000 -0.399116
170.550000 -0.416245
170.600000 -0.416245
170.650000 -0.409393
170.700000 -0.395690
170.750000 -0.378561
170.800000 -0.381986
170.850000 -0.368283
170.900000 -0.323746
170.950000 -0.292913
171.000000 -0.265506
171.050000 -0.200414
171.100000 -0.125045
171.150000 -0.087360
171.200000 -0.042824
171.250000 0.011991
171.300000 0.035973
171.350000 0.032547
171.400000 0.022268
171.450000 0.015417
171.500000 0.001713
171.550000 -0.035971
171.600000 -0.087360
171.650000 -0.135323
171.700000 -0.179858
171.750000 -0.227822
171.800000 -0.279210
171.850000 -0.316894
171.900000 -0.344302
171.950000 -0.351153
172.000000 -0.320320
172.050000 -0.248377
172.100000 -0.173007
172.150000 -0.101064
172.200000 -0.018842
172.250000 0.063379
172.300000 0.111341
172.350000 0.128471
172.400000 0.114768
172.450000 0.059954
172.500000 -0.015416
172.550000 -0.094212
172.600000 -0.190137
172.650000 -0.272357
172.700000 -0.330598
172.750000 -0.368283
172.800000 -0.395690
172.850000 -0.351153
172.900000 -0.231247
172.950000 -0.104489
173.000000 0.005139
173.050000 0.131897
173.100000 0.268932
173.150000 0.364858
173.200000 0.388838
173.250000 0.364858
173.300000 0.320321
173.350000 0.248377
173.400000 0.131897
173.450000 -0.011990
173.500000 -0.149026
173.550000 -0.248377
173.600000 -0.313469
173.650000 -0.327173
173.700000 -0.316894
173.750000 -0.303190
173.800000 -0.272358
173.850000 -0.203840
173.900000 -0.142174
173.950000 -0.094211
174.000000 -0.032545
174.050000 0.032546
174.100000 0.066806
174.150000 0.073657
174.200000 0.066805
174.250000 0.059954
174.300000 0.073657
174.350000 0.090786
174.400000 0.094212
174.450000 0.128471
174.500000 0.190137
174.550000 0.224396
174.600000 0.217544
174.650000 0.234674
174.700000 0.244952
174.750000 0.186712
174.800000 0.080509
174.850000 -0.001713
174.900000 -0.080508
174.950000 -0.196988
175.000000 -0.316894
175.050000 -0.409394
175.100000 -0.474486
175.150000 -0.505319
175.200000 -0.484763
175.250000 -0.412820
175.300000 -0.330598
175.350000 -0.258655
175.400000 -0.173007
175.450000 -0.056527
175.500000 0.042824
175.550000 0.073657
175.600000 0.059954
175.650000 0.035972
175.700000 -0.008565
175.750000 -0.080508
175.800000 -0.162729
175.850000 -0.231247
175.900000 -0.292913
175.950000 -0.344302
176.000000 -0.371708
176.050000 -0.381986
176.100000 -0.375135
176.150000 -0.354579
176.200000 -0.337450
176.250000 -0.320321
176.300000 -0.296339
176.350000 -0.282636
176.400000 -0.265506
176.450000 -0.224395
176.500000 -0.169582
176.550000 -0.118193
176.600000 -0.066804
176.650000 -0.011990
176.700000 0.039398
176.750000 0.094213
176.800000 0.152453
176.850000 0.190137
176.900000 0.176434
176.950000 0.125045
177.000000 0.066805
177.050000 -0.005139
177.100000 -0.094212
177.150000 -0.176433
177.200000 -0.241525
177.250000 -0.292913
177.300000 -0.337450
177.350000 -0.368283
177.400000 -0.358005
177.450000 -0.286061
177.500000 -0.203840
177.550000 -0.131896
177.600000 -0.042823
177.650000 0.059954
177.700000 0.142174
177.750000 0.203841
177.800000 0.241526
177.850000 0.255230
177.900000 0.248378
177.950000 0.203840
178.000000 0.114768
178.050000 0.018843
178.100000 -0.056527
178.150000 -0.145600
178.200000 -0.241525
178.250000 -0.320320
178.300000 -0.358005
178.350000 -0.368283
178.400000 -0.358005
178.450000 -0.323746
178.500000 -0.272358
178.550000 -0.224395
178.600000 -0.176433
178.650000 -0.128471
178.700000 -0.083933
178.750000 -0.066804
178.800000 -0.053101
178.850000 -0.025693
178.900000 -0.011990
178.950000 -0.029119
179.000000 -0.032546
179.050000 -0.022268
179.100000 -0.022268
179.150000 -0.039398
179.200000 -0.042823
179.250000 -0.066804
179.300000 -0.125045
179.350000 -0.186711
179.400000 -0.217544
179.450000 -0.241525
179.500000 -0.272358
179.550000 -0.299765
179.600000 -0.330598
179.650000 -0.334023
179.700000 -0.310043
179.750000 -0.299765
179.800000 -0.313468
179.850000 -0.313468
179.900000 -0.306617
179.950000 -0.334024
180.000000 -0.399116
180.050000 -0.453930
180.100000 -0.488189
180.150000 -0.498467
180.200000 -0.501893
180.250000 -0.484763
180.300000 -0.450504
180.350000 -0.395690
180.400000 -0.327173
180.450000 -0.262081
180.500000 -0.196988
180.550000 -0.125044
180.600000 -0.053101
180.650000 -0.015416
180.700000 -0.015416
180.750000 -0.049675
180.800000 -0.101063
180.850000 -0.162729
180.900000 -0.224395
180.950000 -0.299765
181.000000 -0.371709
181.050000 -0.416245
181.100000 -0.453930
181.150000 -0.484763
181.200000 -0.484763
181.250000 -0.457356
181.300000 -0.464208
181.350000 -0.484763
181.400000 -0.457356
181.450000 -0.392264
181.500000 -0.364856
181.550000 -0.371709
181.600000 -0.371709
181.650000 -0.364857
181.700000 -0.368283
181.750000 -0.395690
181.800000 -0.423097
181.850000 -0.433375
181.900000 -0.429949
181.950000 -0.423097
182.000000 -0.416245
182.050000 -0.402542
182.100000 -0.388838
182.150000 -0.368283
182.200000 -0.330598
182.250000 -0.289487
182.300000 -0.248377
182.350000 -0.196989
182.400000 -0.149026
182.450000 -0.118193
182.500000 -0.077082
182.550000 -0.025694
182.600000 -0.015416
182.650000 -0.063379
182.700000 -0.101063
182.750000 -0.138748
182.800000 -0.203840
182.850000 -0.262080
182.900000 -0.279210
182.950000 -0.296339
183.000000 -0.313469
183.050000 -0.289487
183.100000 -0.241525
183.150000 -0.220969
183.200000 -0.207266
183.250000 -0.179859
183.300000 -0.155878
183.350000 -0.152452
183.400000 -0.173007
183.450000 -0.217543
183.500000 -0.268932
183.550000 -0.330598
183.600000 -0.405968
183.650000 -0.450505
183.700000 -0.450504
183.750000 -0.460781
183.800000 -0.471059
183.850000 -0.423098
183.900000 -0.340876
183.950000 -0.292913
184.000000 -0.262080
184.050000 -0.207266
184.100000 -0.138748
184.150000 -0.063378
184.200000 0.029121
184.250000 0.094213
184.300000 0.107916
184.350000 0.131897
184.400000 0.183286
184.450000 0.210693
184.500000 0.214118
184.550000 0.227822
184.600000 0.227822
184.650000 0.196989
184.700000 0.176434
184.750000 0.162730
184.800000 0.142175
184.850000 0.121619
184.900000 0.104490
184.950000 0.049675
185.000000 -0.005138
185.050000 -0.022268
185.100000 -0.018842
185.150000 -0.035971
185.200000 -0.063378
185.250000 -0.080508
185.300000 -0.083934
185.350000 -0.073656
185.400000 -0.049675
185.450000 -0.025694
185.500000 -0.005138
185.550000 -0.015416
185.600000 -0.059952
185.650000 -0.111341
185.700000 -0.176433
185.750000 -0.282636
185.800000 -0.388839
185.850000 -0.447079
185.900000 -0.481337
185.950000 -0.505319
186.000000 -0.477911
186.050000 -0.399116
186.100000 -0.310043
186.150000 -0.210691
186.200000 -0.097638
186.250000 -0.005138
186.300000 0.077083
186.350000 0.135323
186.400000 0.142175
186.450000 0.101064
186.500000 0.046250
186.550000 -0.039397
186.600000 -0.145600
186.650000 -0.217544
186.700000 -0.262080
186.750000 -0.303191
186.800000 -0.296339
186.850000 -0.234673
186.900000 -0.183285
186.950000 -0.149026
187.000000 -0.097638
187.050000 -0.053101
187.100000 -0.025694
187.150000 -0.005138
187.200000 0.008565
187.250000 -0.011990
187.300000 -0.049675
187.350000 -0.080508
187.400000 -0.111341
187.450000 -0.142174
187.500000 -0.159303
187.550000 -0.162730
187.600000 -0.173007
187.650000 -0.176433
187.700000 -0.162730
187.750000 -0.152451
187.800000 -0.149026
187.850000 -0.125045
187.900000 -0.077083
187.950000 -0.025694
188.000000 0.022268
188.050000 0.090786
188.100000 0.166156
188.150000 0.210693
188.200000 0.231248
188.250000 0.227822
188.300000 0.190137
188.350000 0.118194
188.400000 0.042824
188.450000 -0.046249
188.500000 -0.179859
188.550000 -0.351153
188.600000 -0.505319
188.650000 -0.628651
188.700000 -0.734853
188.750000 -0.817074
188.800000 -0.861611
188.850000 -0.841056
188.900000 -0.758834
