fit_time[ns] Functional_fit[mV] Thermal_fit[mV]
3.700000 18.732912 17.640151
3.750000 18.741693 17.252341
3.800000 18.713357 16.872952
3.850000 18.639608 16.501794
3.900000 18.513679 16.138681
3.950000 18.330468 15.783430
4.000000 18.086634 15.435863
4.050000 17.780648 15.095807
4.100000 17.412786 14.763092
4.150000 16.985089 14.437554
4.200000 16.501274 14.119032
4.250000 15.966598 13.807367
4.300000 15.387694 13.502406
4.350000 14.772372 13.203999
4.400000 14.129393 12.911999
4.450000 13.468222 12.626264
4.500000 12.798771 12.346653
4.550000 12.131131 12.073031
4.600000 11.475314 11.805264
4.650000 10.840986 11.543222
4.700000 10.237232 11.286777
4.750000 9.672325 11.035807
4.800000 9.153531 10.790190
4.850000 8.686939 10.549806
4.900000 8.277322 10.314542
4.950000 7.928040 10.084284
5.000000 7.640976 9.858921
5.050000 7.416515 9.638346
5.100000 7.253557 9.422453
5.150000 7.149573 9.211141
5.200000 7.100693 9.004307
5.250000 7.101827 8.801855
5.300000 7.146817 8.603688
5.350000 7.228610 8.409712
5.400000 7.339455 8.219837
5.450000 7.471109 8.033972
5.500000 7.615058 7.852030
5.550000 7.762735 7.673925
5.600000 7.905738 7.499574
5.650000 8.036038 7.328896
5.700000 8.146179 7.161811
5.750000 8.229451 6.998240
5.800000 8.280048 6.838108
5.850000 8.293196 6.681340
5.900000 8.265255 6.527864
5.950000 8.193785 6.377607
6.000000 8.077590 6.230501
6.050000 7.916717 6.086478
6.100000 7.712433 5.945471
6.150000 7.467167 5.807415
6.200000 7.184425 5.672247
6.250000 6.868676 5.539904
6.300000 6.525223 5.410326
6.350000 6.160044 5.283454
6.400000 5.779630 5.159229
6.450000 5.390805 5.037595
6.500000 5.000547 4.918496
6.550000 4.615802 4.801879
6.600000 4.243307 4.687689
6.650000 3.889422 4.575875
6.700000 3.559972 4.466387
6.750000 3.260109 4.359174
6.800000 2.994186 4.254189
6.850000 2.765667 4.151383
6.900000 2.577051 4.050711
6.950000 2.429825 3.952127
7.000000 2.324443 3.855586
7.050000 2.260335 3.761046
7.100000 2.235938 3.668463
7.150000 2.248757 3.577797
7.200000 2.295438 3.489007
7.250000 2.371879 3.402052
7.300000 2.473339 3.316895
7.350000 2.594574 3.233497
7.400000 2.729980 3.151820
7.450000 2.873741 3.071829
7.500000 3.019980 2.993488
7.550000 3.162911 2.916763
7.600000 3.296983 2.841618
7.650000 3.417017 2.768021
7.700000 3.518328 2.695940
7.750000 3.596840 2.625342
7.800000 3.649171 2.556196
7.850000 3.672712 2.488471
7.900000 3.665672 2.422139
7.950000 3.627113 2.357169
8.000000 3.556953 2.293533
8.050000 3.455954 2.231203
8.100000 3.325684 2.170152
8.150000 3.168461 2.110352
8.200000 2.987282 2.051779
8.250000 2.785727 1.994405
8.300000 2.567863 1.938207
8.350000 2.338124 1.883159
8.400000 2.101195 1.829237
8.450000 1.861883 1.776419
8.500000 1.624995 1.724680
8.550000 1.395211 1.673999
8.600000 1.176970 1.624353
8.650000 0.974357 1.575721
8.700000 0.791008 1.528082
8.750000 0.630022 1.481415
8.800000 0.493896 1.435700
8.850000 0.384465 1.390917
8.900000 0.302875 1.347047
8.950000 0.249562 1.304070
9.000000 0.224252 1.261969
9.050000 0.225985 1.220725
9.100000 0.253152 1.180320
9.150000 0.303544 1.140738
9.200000 0.374421 1.101960
9.250000 0.462596 1.063971
9.300000 0.564516 1.026753
9.350000 0.676368 0.990292
9.400000 0.794173 0.954571
9.450000 0.913897 0.919575
9.500000 1.031551 0.885290
9.550000 1.143291 0.851700
9.600000 1.245518 0.818791
9.650000 1.334957 0.786549
9.700000 1.408742 0.754961
9.750000 1.464476 0.724012
9.800000 1.500286 0.693691
9.850000 1.514858 0.663983
9.900000 1.507462 0.634876
9.950000 1.477958 0.606359
10.000000 1.426788 0.578418
10.050000 1.354954 0.551042
10.100000 1.263982 0.524219
10.150000 1.155870 0.497938
10.200000 1.033033 0.472188
10.250000 0.898227 0.446958
10.300000 0.754477 0.422238
10.350000 0.604990 0.398016
10.400000 0.453075 0.374283
10.450000 0.302049 0.351028
10.500000 0.155160 0.328243
10.550000 0.015497 0.305916
10.600000 -0.114080 0.284040
10.650000 -0.231012 0.262604
10.700000 -0.333098 0.241600
10.750000 -0.418551 0.221018
10.800000 -0.486027 0.200851
10.850000 -0.534660 0.181090
10.900000 -0.564069 0.161726
10.950000 -0.574360 0.142751
11.000000 -0.566120 0.124158
11.050000 -0.540382 0.105939
11.100000 -0.498602 0.088085
11.150000 -0.442607 0.070590
11.200000 -0.374543 0.053447
11.250000 -0.296814 0.036647
11.300000 -0.212019 0.020185
11.350000 -0.122878 0.004053
11.400000 -0.032162 -0.011755
11.450000 0.057378 -0.027247
11.500000 0.143081 -0.042427
11.550000 0.222443 -0.057304
11.600000 0.293176 -0.071882
11.650000 0.353264 -0.086169
11.700000 0.401008 -0.100169
11.750000 0.435065 -0.113889
11.800000 0.454472 -0.127335
11.850000 0.458667 -0.140511
11.900000 0.447494 -0.153424
11.950000 0.421198 -0.166079
12.000000 0.380414 -0.178480
12.050000 0.326140 -0.190634
12.100000 0.259706 -0.202544
12.150000 0.182735 -0.214217
12.200000 0.097093 -0.225657
12.250000 0.004840 -0.236868
12.300000 -0.091830 -0.247855
12.350000 -0.190646 -0.258623
12.400000 -0.289318 -0.269176
12.450000 -0.385599 -0.279518
12.500000 -0.477339 -0.289654
12.550000 -0.562541 -0.299588
12.600000 -0.639405 -0.309324
12.650000 -0.706375 -0.318866
12.700000 -0.762172 -0.328218
12.750000 -0.805821 -0.337384
12.800000 -0.836671 -0.346366
12.850000 -0.854406 -0.355170
12.900000 -0.859045 -0.363799
12.950000 -0.850940 -0.372256
13.000000 -0.830753 -0.380545
13.050000 -0.799442 -0.388668
13.100000 -0.758222 -0.396630
13.150000 -0.708540 -0.404434
13.200000 -0.652022 -0.412083
13.250000 -0.590436 -0.419579
13.300000 -0.525645 -0.426927
13.350000 -0.459550 -0.434128
13.400000 -0.394049 -0.441187
13.450000 -0.330983 -0.448105
13.500000 -0.272095 -0.454886
13.550000 -0.218983 -0.461532
13.600000 -0.173063 -0.468046
13.650000 -0.135540 -0.474431
13.700000 -0.107376 -0.480689
13.750000 -0.089273 -0.486824
13.800000 -0.081661 -0.492836
13.850000 -0.084689 -0.498729
13.900000 -0.098229 -0.504506
13.950000 -0.121884 -0.510168
14.000000 -0.155004 -0.515717
14.050000 -0.196706 -0.521157
14.100000 -0.245901 -0.526489
14.150000 -0.301327 -0.531715
14.200000 -0.361585 -0.536838
14.250000 -0.425175 -0.541860
14.300000 -0.490538 -0.546782
14.350000 -0.556098 -0.551607
14.400000 -0.620299 -0.556336
14.450000 -0.681648 -0.560971
14.500000 -0.738751 -0.565515
14.550000 -0.790346 -0.569969
14.600000 -0.835332 -0.574335
14.650000 -0.872798 -0.578615
14.700000 -0.902039 -0.582810
14.750000 -0.922569 -0.586922
14.800000 -0.934135 -0.590953
14.850000 -0.936714 -0.594905
14.900000 -0.930511 -0.598778
14.950000 -0.915949 -0.602575
15.000000 -0.893655 -0.606296
15.050000 -0.864441 -0.609945
15.100000 -0.829276 -0.613521
15.150000 -0.789262 -0.617027
15.200000 -0.745603 -0.620464
15.250000 -0.699571 -0.623832
15.300000 -0.652472 -0.627135
15.350000 -0.605614 -0.630372
15.400000 -0.560271 -0.633545
15.450000 -0.517655 -0.636656
15.500000 -0.478881 -0.639706
15.550000 -0.444946 -0.642695
15.600000 -0.416701 -0.645626
15.650000 -0.394835 -0.648499
15.700000 -0.379858 -0.651315
15.750000 -0.372096 -0.654076
15.800000 -0.371680 -0.656782
15.850000 -0.378552 -0.659435
15.900000 -0.392466 -0.662036
15.950000 -0.412999 -0.664586
16.000000 -0.439569 -0.667086
16.050000 -0.471444 -0.669536
16.100000 -0.507775 -0.671938
16.150000 -0.547610 -0.674293
16.200000 -0.589925 -0.676602
16.250000 -0.633652 -0.678865
16.300000 -0.677706 -0.681084
16.350000 -0.721011 -0.683259
16.400000 -0.762531 -0.685391
16.450000 -0.801294 -0.687482
16.500000 -0.836416 -0.689531
16.550000 -0.867121 -0.691540
16.600000 -0.892760 -0.693510
16.650000 -0.912823 -0.695441
16.700000 -0.926953 -0.697334
16.750000 -0.934950 -0.699190
16.800000 -0.936773 -0.701010
16.850000 -0.932539 -0.702794
16.900000 -0.922515 -0.704542
16.950000 -0.907113 -0.706257
17.000000 -0.886871 -0.707938
17.050000 -0.862440 -0.709586
17.100000 -0.834566 -0.711201
17.150000 -0.804067 -0.712785
17.200000 -0.771812 -0.714338
17.250000 -0.738698 -0.715860
17.300000 -0.705626 -0.717353
17.350000 -0.673478 -0.718816
17.400000 -0.643095 -0.720251
17.450000 -0.615256 -0.721658
17.500000 -0.590660 -0.723037
17.550000 -0.569909 -0.724389
17.600000 -0.553495 -0.725714
17.650000 -0.541789 -0.727014
17.700000 -0.535034 -0.728288
17.750000 -0.533343 -0.729537
17.800000 -0.536693 -0.730762
17.850000 -0.544936 -0.731962
17.900000 -0.557798 -0.733140
17.950000 -0.574896 -0.734294
18.000000 -0.595740 -0.735426
18.050000 -0.619757 -0.736535
18.100000 -0.646302 -0.737623
18.150000 -0.674677 -0.738689
18.200000 -0.704149 -0.739735
18.250000 -0.733972 -0.740760
18.300000 -0.763404 -0.741766
18.350000 -0.791727 -0.742751
18.400000 -0.818262 -0.743718
18.450000 -0.842391 -0.744665
18.500000 -0.863567 -0.745594
18.550000 -0.881329 -0.746505
18.600000 -0.895311 -0.747398
18.650000 -0.905250 -0.748273
18.700000 -0.910992 -0.749132
18.750000 -0.912490 -0.749973
18.800000 -0.909809 -0.750799
18.850000 -0.903116 -0.751608
18.900000 -0.892680 -0.752401
18.950000 -0.878858 -0.753179
19.000000 -0.862087 -0.753942
19.050000 -0.842871 -0.754690
19.100000 -0.821765 -0.755423
19.150000 -0.799364 -0.756142
19.200000 -0.776282 -0.756847
19.250000 -0.753139 -0.757538
19.300000 -0.730546 -0.758216
19.350000 -0.709086 -0.758880
19.400000 -0.689304 -0.759532
19.450000 -0.671689 -0.760170
19.500000 -0.656667 -0.760797
19.550000 -0.644587 -0.761411
19.600000 -0.635720 -0.762013
19.650000 -0.630246 -0.762604
19.700000 -0.628255 -0.763183
19.750000 -0.629748 -0.763750
19.800000 -0.634635 -0.764307
19.850000 -0.642740 -0.764853
19.900000 -0.653812 -0.765388
19.950000 -0.667523 -0.765913
20.000000 -0.683488 -0.766427
20.050000 -0.701269 -0.766932
20.100000 -0.720390 -0.767426
20.150000 -0.740351 -0.767912
20.200000 -0.760638 -0.768387
20.250000 -0.780739 -0.768854
20.300000 -0.800157 -0.769311
20.350000 -0.818419 -0.769759
20.400000 -0.835092 -0.770199
20.450000 -0.849793 -0.770630
20.500000 -0.862194 -0.771053
20.550000 -0.872032 -0.771467
20.600000 -0.879115 -0.771874
20.650000 -0.883326 -0.772273
20.700000 -0.884620 -0.772663
20.750000 -0.883029 -0.773047
20.800000 -0.878660 -0.773422
20.850000 -0.871685 -0.773791
20.900000 -0.862342 -0.774152
20.950000 -0.850923 -0.774507
21.000000 -0.837768 -0.774854
21.050000 -0.823254 -0.775195
21.100000 -0.807787 -0.775529
21.150000 -0.791789 -0.775856
21.200000 -0.775686 -0.776178
21.250000 -0.759900 -0.776493
21.300000 -0.744836 -0.776801
21.350000 -0.730873 -0.777104
21.400000 -0.718355 -0.777401
21.450000 -0.707581 -0.777693
21.500000 -0.698802 -0.777978
21.550000 -0.692211 -0.778258
21.600000 -0.687942 -0.778533
21.650000 -0.686067 -0.778802
21.700000 -0.686597 -0.779066
21.750000 -0.689477 -0.779325
21.800000 -0.694598 -0.779579
21.850000 -0.701793 -0.779828
21.900000 -0.710844 -0.780072
21.950000 -0.721493 -0.780312
22.000000 -0.733442 -0.780546
22.050000 -0.746368 -0.780777
22.100000 -0.759928 -0.781002
22.150000 -0.773770 -0.781224
22.200000 -0.787541 -0.781441
22.250000 -0.800895 -0.781654
22.300000 -0.813506 -0.781863
22.350000 -0.825069 -0.782067
22.400000 -0.835316 -0.782268
22.450000 -0.844014 -0.782465
22.500000 -0.850975 -0.782658
22.550000 -0.856060 -0.782847
22.600000 -0.859178 -0.783033
22.650000 -0.860293 -0.783215
22.700000 -0.859418 -0.783394
22.750000 -0.856617 -0.783569
22.800000 -0.852004 -0.783740
22.850000 -0.845734 -0.783909
22.900000 -0.838004 -0.784074
22.950000 -0.829043 -0.784236
23.000000 -0.819106 -0.784395
23.050000 -0.808471 -0.784550
23.100000 -0.797426 -0.784703
23.150000 -0.786265 -0.784853
23.200000 -0.775278 -0.785000
23.250000 -0.764748 -0.785144
23.300000 -0.754937 -0.785285
23.350000 -0.746087 -0.785423
23.400000 -0.738409 -0.785559
23.450000 -0.732081 -0.785692
23.500000 -0.727241 -0.785823
23.550000 -0.723989 -0.785951
23.600000 -0.722381 -0.786077
23.650000 -0.722430 -0.786200
23.700000 -0.724107 -0.786321
23.750000 -0.727341 -0.786439
23.800000 -0.732024 -0.786555
23.850000 -0.738010 -0.786669
23.900000 -0.745126 -0.786781
23.950000 -0.753172 -0.786891
24.000000 -0.761926 -0.786998
24.050000 -0.771155 -0.787103
24.100000 -0.780617 -0.787207
24.150000 -0.790068 -0.787308
24.200000 -0.799270 -0.787408
24.250000 -0.807995 -0.787505
24.300000 -0.816032 -0.787601
24.350000 -0.823191 -0.787694
24.400000 -0.829307 -0.787786
24.450000 -0.834247 -0.787877
24.500000 -0.837910 -0.787965
24.550000 -0.840228 -0.788052
24.600000 -0.841169 -0.788137
24.650000 -0.840737 -0.788220
24.700000 -0.838973 -0.788302
24.750000 -0.835948 -0.788382
24.800000 -0.831765 -0.788461
24.850000 -0.826555 -0.788538
24.900000 -0.820473 -0.788614
24.950000 -0.813692 -0.788688
25.000000 -0.806400 -0.788761
25.050000 -0.798796 -0.788832
25.100000 -0.791081 -0.788902
25.150000 -0.783456 -0.788971
25.200000 -0.776117 -0.789038
25.250000 -0.769246 -0.789104
25.300000 -0.763012 -0.789169
25.350000 -0.757564 -0.789232
25.400000 -0.753028 -0.789295
25.450000 -0.749504 -0.789356
25.500000 -0.747064 -0.789416
25.550000 -0.745752 -0.789474
25.600000 -0.745582 -0.789532
25.650000 -0.746537 -0.789588
25.700000 -0.748574 -0.789644
25.750000 -0.751622 -0.789698
25.800000 -0.755584 -0.789751
25.850000 -0.760344 -0.789804
25.900000 -0.765766 -0.789855
25.950000 -0.771701 -0.789905
26.000000 -0.777989 -0.789955
26.050000 -0.784463 -0.790003
26.100000 -0.790956 -0.790050
26.150000 -0.797304 -0.790097
26.200000 -0.803347 -0.790143
26.250000 -0.808939 -0.790187
26.300000 -0.813946 -0.790231
26.350000 -0.818253 -0.790274
26.400000 -0.821764 -0.790316
26.450000 -0.824405 -0.790358
26.500000 -0.826127 -0.790398
26.550000 -0.826903 -0.790438
26.600000 -0.826734 -0.790477
26.650000 -0.825641 -0.790516
26.700000 -0.823672 -0.790553
26.750000 -0.820895 -0.790590
26.800000 -0.817396 -0.790626
26.850000 -0.813279 -0.790662
26.900000 -0.808663 -0.790696
26.950000 -0.803675 -0.790731
27.000000 -0.798450 -0.790764
27.050000 -0.793129 -0.790797
27.100000 -0.787848 -0.790829
27.150000 -0.782743 -0.790860
27.200000 -0.777942 -0.790891
27.250000 -0.773563 -0.790922
27.300000 -0.769709 -0.790951
27.350000 -0.766471 -0.790981
27.400000 -0.763921 -0.791009
27.450000 -0.762110 -0.791037
27.500000 -0.761073 -0.791065
27.550000 -0.760821 -0.791092
27.600000 -0.761347 -0.791118
27.650000 -0.762623 -0.791144
27.700000 -0.764604 -0.791170
27.750000 -0.767226 -0.791195
27.800000 -0.770410 -0.791219
27.850000 -0.774066 -0.791243
27.900000 -0.778091 -0.791267
27.950000 -0.782377 -0.791290
28.000000 -0.786809 -0.791313
28.050000 -0.791272 -0.791335
28.100000 -0.795653 -0.791357
28.150000 -0.799841 -0.791378
28.200000 -0.803734 -0.791399
28.250000 -0.807238 -0.791420
28.300000 -0.810272 -0.791440
28.350000 -0.812768 -0.791460
28.400000 -0.814672 -0.791479
28.450000 -0.815947 -0.791498
28.500000 -0.816575 -0.791517
28.550000 -0.816550 -0.791535
28.600000 -0.815887 -0.791553
28.650000 -0.814615 -0.791571
28.700000 -0.812778 -0.791588
28.750000 -0.810435 -0.791605
28.800000 -0.807655 -0.791622
28.850000 -0.804519 -0.791638
28.900000 -0.801112 -0.791654
28.950000 -0.797529 -0.791670
29.000000 -0.793863 -0.791685
29.050000 -0.790212 -0.791700
29.100000 -0.786667 -0.791715
29.150000 -0.783318 -0.791730
29.200000 -0.780248 -0.791744
29.250000 -0.777529 -0.791758
29.300000 -0.775225 -0.791772
29.350000 -0.773387 -0.791785
29.400000 -0.772054 -0.791798
29.450000 -0.771250 -0.791811
29.500000 -0.770987 -0.791824
29.550000 -0.771261 -0.791836
29.600000 -0.772055 -0.791849
29.650000 -0.773339 -0.791860
29.700000 -0.775073 -0.791872
29.750000 -0.777203 -0.791884
29.800000 -0.779667 -0.791895
29.850000 -0.782397 -0.791906
29.900000 -0.785318 -0.791917
29.950000 -0.788353 -0.791928
30.000000 -0.791422 -0.791938
30.050000 -0.794445 -0.791948
30.100000 -0.797348 -0.791958
30.150000 -0.800058 -0.791968
30.200000 -0.802511 -0.791978
30.250000 -0.804648 -0.791987
30.300000 -0.806421 -0.791997
30.350000 -0.807792 -0.792006
30.400000 -0.808734 -0.792015
30.450000 -0.809231 -0.792024
30.500000 -0.809280 -0.792032
30.550000 -0.808887 -0.792041
30.600000 -0.808071 -0.792049
30.650000 -0.806861 -0.792057
30.700000 -0.805296 -0.792065
30.750000 -0.803423 -0.792073
30.800000 -0.801295 -0.792081
30.850000 -0.798973 -0.792088
30.900000 -0.796518 -0.792095
30.950000 -0.793997 -0.792103
31.000000 -0.791475 -0.792110
31.050000 -0.789016 -0.792117
31.100000 -0.786684 -0.792124
31.150000 -0.784535 -0.792130
31.200000 -0.782620 -0.792137
31.250000 -0.780984 -0.792143
31.300000 -0.779665 -0.792150
31.350000 -0.778689 -0.792156
31.400000 -0.778076 -0.792162
31.450000 -0.777834 -0.792168
31.500000 -0.777963 -0.792174
31.550000 -0.778452 -0.792180
31.600000 -0.779283 -0.792185
31.650000 -0.780427 -0.792191
31.700000 -0.781850 -0.792196
31.750000 -0.783511 -0.792201
31.800000 -0.785362 -0.792207
31.850000 -0.787353 -0.792212
31.900000 -0.789430 -0.792217
31.950000 -0.791540 -0.792222
32.000000 -0.793626 -0.792226
32.050000 -0.795638 -0.792231
32.100000 -0.797525 -0.792236
32.150000 -0.799240 -0.792240
32.200000 -0.800745 -0.792245
32.250000 -0.802004 -0.792249
32.300000 -0.802990 -0.792254
32.350000 -0.803683 -0.792258
32.400000 -0.804072 -0.792262
32.450000 -0.804151 -0.792266
32.500000 -0.803925 -0.792270
32.550000 -0.803406 -0.792274
32.600000 -0.802612 -0.792278
32.650000 -0.801570 -0.792281
32.700000 -0.800310 -0.792285
32.750000 -0.798868 -0.792289
32.800000 -0.797286 -0.792292
32.850000 -0.795607 -0.792296
32.900000 -0.793874 -0.792299
32.950000 -0.792134 -0.792303
33.000000 -0.790431 -0.792306
33.050000 -0.788809 -0.792309
33.100000 -0.787306 -0.792312
33.150000 -0.785960 -0.792315
33.200000 -0.784801 -0.792318
33.250000 -0.783857 -0.792321
33.300000 -0.783146 -0.792324
33.350000 -0.782683 -0.792327
33.400000 -0.782476 -0.792330
33.450000 -0.782524 -0.792333
33.500000 -0.782821 -0.792335
33.550000 -0.783356 -0.792338
33.600000 -0.784110 -0.792341
33.650000 -0.785060 -0.792343
33.700000 -0.786179 -0.792346
33.750000 -0.787433 -0.792348
33.800000 -0.788790 -0.792351
33.850000 -0.790211 -0.792353
33.900000 -0.791661 -0.792355
33.950000 -0.793101 -0.792357
34.000000 -0.794494 -0.792360
34.050000 -0.795807 -0.792362
34.100000 -0.797007 -0.792364
34.150000 -0.798066 -0.792366
34.200000 -0.798959 -0.792368
34.250000 -0.799667 -0.792370
34.300000 -0.800175 -0.792372
34.350000 -0.800474 -0.792374
34.400000 -0.800561 -0.792376
34.450000 -0.800437 -0.792378
34.500000 -0.800109 -0.792380
34.550000 -0.799591 -0.792382
34.600000 -0.798898 -0.792383
34.650000 -0.798051 -0.792385
34.700000 -0.797076 -0.792387
34.750000 -0.796000 -0.792389
34.800000 -0.794852 -0.792390
34.850000 -0.793662 -0.792392
34.900000 -0.792463 -0.792393
34.950000 -0.791285 -0.792395
35.000000 -0.790157 -0.792396
35.050000 -0.789108 -0.792398
35.100000 -0.788162 -0.792399
35.150000 -0.787343 -0.792401
35.200000 -0.786668 -0.792402
35.250000 -0.786153 -0.792404
35.300000 -0.785807 -0.792405
35.350000 -0.785636 -0.792406
35.400000 -0.785641 -0.792408
35.450000 -0.785819 -0.792409
35.500000 -0.786162 -0.792410
35.550000 -0.786658 -0.792411
35.600000 -0.787291 -0.792413
35.650000 -0.788044 -0.792414
35.700000 -0.788893 -0.792415
35.750000 -0.789817 -0.792416
35.800000 -0.790790 -0.792417
35.850000 -0.791785 -0.792418
35.900000 -0.792778 -0.792419
35.950000 -0.793743 -0.792420
36.000000 -0.794656 -0.792421
36.050000 -0.795495 -0.792422
36.100000 -0.796239 -0.792423
36.150000 -0.796872 -0.792424
36.200000 -0.797380 -0.792425
36.250000 -0.797751 -0.792426
36.300000 -0.797979 -0.792427
36.350000 -0.798061 -0.792428
36.400000 -0.797997 -0.792429
36.450000 -0.797793 -0.792430
36.500000 -0.797455 -0.792431
36.550000 -0.796996 -0.792432
36.600000 -0.796429 -0.792432
36.650000 -0.795770 -0.792433
36.700000 -0.795038 -0.792434
36.750000 -0.794254 -0.792435
36.800000 -0.793438 -0.792435
36.850000 -0.792612 -0.792436
36.900000 -0.791797 -0.792437
36.950000 -0.791014 -0.792438
37.000000 -0.790282 -0.792438
37.050000 -0.789619 -0.792439
37.100000 -0.789041 -0.792440
37.150000 -0.788560 -0.792440
37.200000 -0.788187 -0.792441
37.250000 -0.787931 -0.792442
37.300000 -0.787794 -0.792442
37.350000 -0.787778 -0.792443
37.400000 -0.787882 -0.792444
37.450000 -0.788101 -0.792444
37.500000 -0.788426 -0.792445
37.550000 -0.788848 -0.792445
37.600000 -0.789353 -0.792446
37.650000 -0.789929 -0.792446
37.700000 -0.790557 -0.792447
37.750000 -0.791222 -0.792447
37.800000 -0.791906 -0.792448
37.850000 -0.792590 -0.792448
37.900000 -0.793258 -0.792449
37.950000 -0.793893 -0.792449
38.000000 -0.794479 -0.792450
38.050000 -0.795002 -0.792450
38.100000 -0.795450 -0.792451
38.150000 -0.795812 -0.792451
38.200000 -0.796083 -0.792452
38.250000 -0.796255 -0.792452
38.300000 -0.796327 -0.792453
38.350000 -0.796298 -0.792453
38.400000 -0.796172 -0.792453
38.450000 -0.795954 -0.792454
38.500000 -0.795650 -0.792454
38.550000 -0.795270 -0.792455
38.600000 -0.794825 -0.792455
38.650000 -0.794329 -0.792455
38.700000 -0.793794 -0.792456
38.750000 -0.793234 -0.792456
38.800000 -0.792666 -0.792456
38.850000 -0.792103 -0.792457
38.900000 -0.791560 -0.792457
38.950000 -0.791049 -0.792458
39.000000 -0.790585 -0.792458
39.050000 -0.790177 -0.792458
39.100000 -0.789835 -0.792458
39.150000 -0.789566 -0.792459
39.200000 -0.789377 -0.792459
39.250000 -0.789270 -0.792459
39.300000 -0.789246 -0.792460
39.350000 -0.789305 -0.792460
39.400000 -0.789443 -0.792460
39.450000 -0.789656 -0.792461
39.500000 -0.789936 -0.792461
39.550000 -0.790276 -0.792461
39.600000 -0.790664 -0.792461
39.650000 -0.791092 -0.792462
39.700000 -0.791546 -0.792462
39.750000 -0.792015 -0.792462
39.800000 -0.792487 -0.792462
39.850000 -0.792949 -0.792463
39.900000 -0.793390 -0.792463
39.950000 -0.793799 -0.792463
40.000000 -0.794166 -0.792463
40.050000 -0.794483 -0.792463
40.100000 -0.794742 -0.792464
40.150000 -0.794938 -0.792464
40.200000 -0.795067 -0.792464
40.250000 -0.795127 -0.792464
40.300000 -0.795118 -0.792464
40.350000 -0.795042 -0.792465
40.400000 -0.794901 -0.792465
40.450000 -0.794700 -0.792465
40.500000 -0.794446 -0.792465
40.550000 -0.794147 -0.792465
40.600000 -0.793810 -0.792466
40.650000 -0.793445 -0.792466
40.700000 -0.793062 -0.792466
40.750000 -0.792671 -0.792466
40.800000 -0.792282 -0.792466
40.850000 -0.791906 -0.792466
40.900000 -0.791550 -0.792467
40.950000 -0.791225 -0.792467
41.000000 -0.790938 -0.792467
41.050000 -0.790695 -0.792467
41.100000 -0.790502 -0.792467
41.150000 -0.790363 -0.792467
41.200000 -0.790280 -0.792467
41.250000 -0.790255 -0.792468
41.300000 -0.790286 -0.792468
41.350000 -0.790373 -0.792468
41.400000 -0.790512 -0.792468
41.450000 -0.790698 -0.792468
41.500000 -0.790926 -0.792468
41.550000 -0.791188 -0.792468
41.600000 -0.791479 -0.792468
41.650000 -0.791789 -0.792469
41.700000 -0.792111 -0.792469
41.750000 -0.792436 -0.792469
41.800000 -0.792755 -0.792469
41.850000 -0.793061 -0.792469
41.900000 -0.793347 -0.792469
41.950000 -0.793604 -0.792469
42.000000 -0.793828 -0.792469
42.050000 -0.794012 -0.792469
42.100000 -0.794154 -0.792470
42.150000 -0.794250 -0.792470
42.200000 -0.794299 -0.792470
42.250000 -0.794300 -0.792470
42.300000 -0.794254 -0.792470
42.350000 -0.794164 -0.792470
42.400000 -0.794032 -0.792470
42.450000 -0.793863 -0.792470
42.500000 -0.793661 -0.792470
42.550000 -0.793433 -0.792470
42.600000 -0.793184 -0.792470
42.650000 -0.792922 -0.792471
42.700000 -0.792654 -0.792471
42.750000 -0.792385 -0.792471
42.800000 -0.792124 -0.792471
42.850000 -0.791877 -0.792471
42.900000 -0.791650 -0.792471
42.950000 -0.791448 -0.792471
43.000000 -0.791275 -0.792471
43.050000 -0.791137 -0.792471
43.100000 -0.791035 -0.792471
43.150000 -0.790972 -0.792471
43.200000 -0.790949 -0.792471
43.250000 -0.790964 -0.792471
43.300000 -0.791018 -0.792471
43.350000 -0.791108 -0.792472
43.400000 -0.791232 -0.792472
43.450000 -0.791384 -0.792472
43.500000 -0.791561 -0.792472
43.550000 -0.791759 -0.792472
43.600000 -0.791970 -0.792472
43.650000 -0.792191 -0.792472
43.700000 -0.792414 -0.792472
43.750000 -0.792635 -0.792472
43.800000 -0.792848 -0.792472
43.850000 -0.793047 -0.792472
43.900000 -0.793227 -0.792472
43.950000 -0.793385 -0.792472
44.000000 -0.793516 -0.792472
44.050000 -0.793618 -0.792472
44.100000 -0.793689 -0.792472
44.150000 -0.793728 -0.792472
44.200000 -0.793734 -0.792472
44.250000 -0.793707 -0.792472
44.300000 -0.793650 -0.792472
44.350000 -0.793563 -0.792473
44.400000 -0.793451 -0.792473
44.450000 -0.793315 -0.792473
44.500000 -0.793161 -0.792473
44.550000 -0.792991 -0.792473
44.600000 -0.792812 -0.792473
44.650000 -0.792628 -0.792473
44.700000 -0.792443 -0.792473
44.750000 -0.792262 -0.792473
44.800000 -0.792090 -0.792473
44.850000 -0.791931 -0.792473
44.900000 -0.791789 -0.792473
44.950000 -0.791667 -0.792473
45.000000 -0.791568 -0.792473
45.050000 -0.791494 -0.792473
45.100000 -0.791447 -0.792473
45.150000 -0.791426 -0.792473
45.200000 -0.791433 -0.792473
45.250000 -0.791466 -0.792473
45.300000 -0.791524 -0.792473
45.350000 -0.791605 -0.792473
45.400000 -0.791707 -0.792473
45.450000 -0.791827 -0.792473
45.500000 -0.791961 -0.792473
45.550000 -0.792105 -0.792473
45.600000 -0.792256 -0.792473
45.650000 -0.792410 -0.792473
45.700000 -0.792562 -0.792473
45.750000 -0.792710 -0.792473
45.800000 -0.792848 -0.792473
45.850000 -0.792975 -0.792473
45.900000 -0.793086 -0.792474
45.950000 -0.793179 -0.792474
46.000000 -0.793253 -0.792474
46.050000 -0.793305 -0.792474
46.100000 -0.793335 -0.792474
46.150000 -0.793343 -0.792474
46.200000 -0.793328 -0.792474
46.250000 -0.793291 -0.792474
46.300000 -0.793235 -0.792474
46.350000 -0.793160 -0.792474
46.400000 -0.793069 -0.792474
46.450000 -0.792964 -0.792474
46.500000 -0.792849 -0.792474
46.550000 -0.792727 -0.792474
46.600000 -0.792600 -0.792474
46.650000 -0.792473 -0.792474
46.700000 -0.792348 -0.792474
46.750000 -0.792228 -0.792474
46.800000 -0.792117 -0.792474
46.850000 -0.792018 -0.792474
46.900000 -0.791931 -0.792474
46.950000 -0.791861 -0.792474
47.000000 -0.791807 -0.792474
47.050000 -0.791771 -0.792474
47.100000 -0.791754 -0.792474
47.150000 -0.791756 -0.792474
47.200000 -0.791776 -0.792474
47.250000 -0.791813 -0.792474
47.300000 -0.791867 -0.792474
47.350000 -0.791935 -0.792474
47.400000 -0.792016 -0.792474
47.450000 -0.792106 -0.792474
47.500000 -0.792205 -0.792474
47.550000 -0.792308 -0.792474
47.600000 -0.792414 -0.792474
47.650000 -0.792519 -0.792474
47.700000 -0.792621 -0.792474
47.750000 -0.792718 -0.792474
47.800000 -0.792806 -0.792474
47.850000 -0.792884 -0.792474
47.900000 -0.792951 -0.792474
47.950000 -0.793003 -0.792474
48.000000 -0.793042 -0.792474
48.050000 -0.793065 -0.792474
48.100000 -0.793072 -0.792474
48.150000 -0.793065 -0.792474
48.200000 -0.793042 -0.792474
48.250000 -0.793005 -0.792474
48.300000 -0.792955 -0.792474
48.350000 -0.792894 -0.792474
48.400000 -0.792824 -0.792474
48.450000 -0.792745 -0.792474
48.500000 -0.792662 -0.792474
48.550000 -0.792575 -0.792474
48.600000 -0.792487 -0.792474
48.650000 -0.792401 -0.792474
48.700000 -0.792318 -0.792474
48.750000 -0.792240 -0.792474
48.800000 -0.792170 -0.792474
48.850000 -0.792110 -0.792474
48.900000 -0.792059 -0.792474
48.950000 -0.792020 -0.792474
49.000000 -0.791994 -0.792474
49.050000 -0.791980 -0.792474
49.100000 -0.791979 -0.792474
49.150000 -0.791991 -0.792474
49.200000 -0.792015 -0.792474
49.250000 -0.792050 -0.792474
49.300000 -0.792096 -0.792474
49.350000 -0.792150 -0.792474
49.400000 -0.792211 -0.792474
49.450000 -0.792278 -0.792474
49.500000 -0.792349 -0.792474
49.550000 -0.792422 -0.792474
49.600000 -0.792494 -0.792474
49.650000 -0.792565 -0.792474
49.700000 -0.792632 -0.792474
49.750000 -0.792694 -0.792474
49.800000 -0.792749 -0.792474
49.850000 -0.792796 -0.792474
49.900000 -0.792834 -0.792474
49.950000 -0.792862 -0.792474
50.000000 -0.792879 -0.792474
50.050000 -0.792886 -0.792474
50.100000 -0.792882 -0.792474
50.150000 -0.792868 -0.792474
50.200000 -0.792844 -0.792474
50.250000 -0.792811 -0.792474
50.300000 -0.792770 -0.792474
50.350000 -0.792723 -0.792474
50.400000 -0.792670 -0.792474
50.450000 -0.792613 -0.792474
50.500000 -0.792553 -0.792474
50.550000 -0.792493 -0.792475
50.600000 -0.792433 -0.792475
50.650000 -0.792375 -0.792475
50.700000 -0.792322 -0.792475
50.750000 -0.792273 -0.792475
50.800000 -0.792230 -0.792475
50.850000 -0.792194 -0.792475
50.900000 -0.792166 -0.792475
50.950000 -0.792146 -0.792475
51.000000 -0.792135 -0.792475
51.050000 -0.792133 -0.792475
51.100000 -0.792140 -0.792475
51.150000 -0.792155 -0.792475
51.200000 -0.792178 -0.792475
51.250000 -0.792209 -0.792475
51.300000 -0.792245 -0.792475
51.350000 -0.792287 -0.792475
51.400000 -0.792332 -0.792475
51.450000 -0.792381 -0.792475
51.500000 -0.792430 -0.792475
51.550000 -0.792481 -0.792475
51.600000 -0.792529 -0.792475
51.650000 -0.792576 -0.792475
51.700000 -0.792619 -0.792475
51.750000 -0.792658 -0.792475
51.800000 -0.792691 -0.792475
51.850000 -0.792718 -0.792475
51.900000 -0.792738 -0.792475
51.950000 -0.792752 -0.792475
52.000000 -0.792758 -0.792475
52.050000 -0.792756 -0.792475
52.100000 -0.792747 -0.792475
52.150000 -0.792732 -0.792475
52.200000 -0.792710 -0.792475
52.250000 -0.792683 -0.792475
52.300000 -0.792651 -0.792475
52.350000 -0.792615 -0.792475
52.400000 -0.792576 -0.792475
52.450000 -0.792535 -0.792475
52.500000 -0.792494 -0.792475
52.550000 -0.792452 -0.792475
52.600000 -0.792412 -0.792475
52.650000 -0.792375 -0.792475
52.700000 -0.792341 -0.792475
52.750000 -0.792310 -0.792475
52.800000 -0.792285 -0.792475
52.850000 -0.792265 -0.792475
52.900000 -0.792250 -0.792475
52.950000 -0.792242 -0.792475
53.000000 -0.792240 -0.792475
53.050000 -0.792243 -0.792475
53.100000 -0.792253 -0.792475
53.150000 -0.792268 -0.792475
53.200000 -0.792288 -0.792475
53.250000 -0.792313 -0.792475
53.300000 -0.792341 -0.792475
53.350000 -0.792372 -0.792475
53.400000 -0.792405 -0.792475
53.450000 -0.792439 -0.792475
53.500000 -0.792473 -0.792475
53.550000 -0.792507 -0.792475
53.600000 -0.792540 -0.792475
53.650000 -0.792570 -0.792475
53.700000 -0.792597 -0.792475
53.750000 -0.792620 -0.792475
53.800000 -0.792640 -0.792475
53.850000 -0.792654 -0.792475
53.900000 -0.792664 -0.792475
53.950000 -0.792669 -0.792475
54.000000 -0.792669 -0.792475
54.050000 -0.792664 -0.792475
54.100000 -0.792654 -0.792475
54.150000 -0.792639 -0.792475
54.200000 -0.792621 -0.792475
54.250000 -0.792600 -0.792475
54.300000 -0.792575 -0.792475
54.350000 -0.792549 -0.792475
54.400000 -0.792521 -0.792475
54.450000 -0.792492 -0.792475
54.500000 -0.792464 -0.792475
54.550000 -0.792436 -0.792475
54.600000 -0.792410 -0.792475
54.650000 -0.792386 -0.792475
54.700000 -0.792365 -0.792475
54.750000 -0.792347 -0.792475
54.800000 -0.792332 -0.792475
54.850000 -0.792322 -0.792475
54.900000 -0.792315 -0.792475
54.950000 -0.792313 -0.792475
55.000000 -0.792315 -0.792475
55.050000 -0.792321 -0.792475
55.100000 -0.792331 -0.792475
55.150000 -0.792344 -0.792475
55.200000 -0.792360 -0.792475
55.250000 -0.792379 -0.792475
55.300000 -0.792400 -0.792475
55.350000 -0.792423 -0.792475
55.400000 -0.792446 -0.792475
55.450000 -0.792470 -0.792475
55.500000 -0.792494 -0.792475
55.550000 -0.792516 -0.792475
55.600000 -0.792537 -0.792475
55.650000 -0.792556 -0.792475
55.700000 -0.792573 -0.792475
55.750000 -0.792586 -0.792475
55.800000 -0.792597 -0.792475
55.850000 -0.792604 -0.792475
55.900000 -0.792608 -0.792475
55.950000 -0.792609 -0.792475
56.000000 -0.792606 -0.792475
56.050000 -0.792599 -0.792475
56.100000 -0.792590 -0.792475
56.150000 -0.792578 -0.792475
56.200000 -0.792563 -0.792475
56.250000 -0.792547 -0.792475
56.300000 -0.792529 -0.792475
56.350000 -0.792509 -0.792475
56.400000 -0.792490 -0.792475
56.450000 -0.792470 -0.792475
56.500000 -0.792451 -0.792475
56.550000 -0.792433 -0.792475
56.600000 -0.792416 -0.792475
56.650000 -0.792401 -0.792475
56.700000 -0.792388 -0.792475
56.750000 -0.792378 -0.792475
56.800000 -0.792370 -0.792475
56.850000 -0.792365 -0.792475
56.900000 -0.792363 -0.792475
56.950000 -0.792364 -0.792475
57.000000 -0.792368 -0.792475
57.050000 -0.792374 -0.792475
57.100000 -0.792383 -0.792475
57.150000 -0.792394 -0.792475
57.200000 -0.792407 -0.792475
57.250000 -0.792421 -0.792475
57.300000 -0.792437 -0.792475
57.350000 -0.792453 -0.792475
57.400000 -0.792469 -0.792475
57.450000 -0.792485 -0.792475
57.500000 -0.792501 -0.792475
57.550000 -0.792515 -0.792475
57.600000 -0.792529 -0.792475
57.650000 -0.792540 -0.792475
57.700000 -0.792550 -0.792475
57.750000 -0.792558 -0.792475
57.800000 -0.792563 -0.792475
57.850000 -0.792566 -0.792475
57.900000 -0.792567 -0.792475
57.950000 -0.792565 -0.792475
58.000000 -0.792561 -0.792475
58.050000 -0.792555 -0.792475
58.100000 -0.792547 -0.792475
58.150000 -0.792537 -0.792475
58.200000 -0.792526 -0.792475
58.250000 -0.792514 -0.792475
58.300000 -0.792501 -0.792475
58.350000 -0.792487 -0.792475
58.400000 -0.792474 -0.792475
58.450000 -0.792460 -0.792475
58.500000 -0.792448 -0.792475
58.550000 -0.792436 -0.792475
58.600000 -0.792426 -0.792475
58.650000 -0.792417 -0.792475
58.700000 -0.792409 -0.792475
58.750000 -0.792404 -0.792475
58.800000 -0.792400 -0.792475
58.850000 -0.792398 -0.792475
58.900000 -0.792399 -0.792475
58.950000 -0.792401 -0.792475
59.000000 -0.792405 -0.792475
59.050000 -0.792411 -0.792475
59.100000 -0.792418 -0.792475
59.150000 -0.792427 -0.792475
59.200000 -0.792436 -0.792475
59.250000 -0.792447 -0.792475
59.300000 -0.792458 -0.792475
59.350000 -0.792469 -0.792475
59.400000 -0.792480 -0.792475
59.450000 -0.792491 -0.792475
59.500000 -0.792501 -0.792475
59.550000 -0.792511 -0.792475
59.600000 -0.792519 -0.792475
59.650000 -0.792526 -0.792475
59.700000 -0.792531 -0.792475
59.750000 -0.792535 -0.792475
59.800000 -0.792538 -0.792475
59.850000 -0.792538 -0.792475
59.900000 -0.792537 -0.792475
59.950000 -0.792535 -0.792475
60.000000 -0.792531 -0.792475
60.050000 -0.792525 -0.792475
60.100000 -0.792519 -0.792475
60.150000 -0.792511 -0.792475
60.200000 -0.792503 -0.792475
60.250000 -0.792494 -0.792475
60.300000 -0.792485 -0.792475
60.350000 -0.792475 -0.792475
60.400000 -0.792466 -0.792475
60.450000 -0.792458 -0.792475
60.500000 -0.792449 -0.792475
60.550000 -0.792442 -0.792475
60.600000 -0.792436 -0.792475
60.650000 -0.792430 -0.792475
60.700000 -0.792426 -0.792475
60.750000 -0.792424 -0.792475
60.800000 -0.792422 -0.792475
60.850000 -0.792422 -0.792475
60.900000 -0.792424 -0.792475
60.950000 -0.792426 -0.792475
61.000000 -0.792430 -0.792475
61.050000 -0.792435 -0.792475
61.100000 -0.792441 -0.792475
61.150000 -0.792447 -0.792475
61.200000 -0.792454 -0.792475
61.250000 -0.792462 -0.792475
61.300000 -0.792470 -0.792475
61.350000 -0.792477 -0.792475
61.400000 -0.792485 -0.792475
61.450000 -0.792492 -0.792475
61.500000 -0.792498 -0.792475
61.550000 -0.792504 -0.792475
61.600000 -0.792509 -0.792475
61.650000 -0.792513 -0.792475
61.700000 -0.792516 -0.792475
61.750000 -0.792518 -0.792475
61.800000 -0.792518 -0.792475
61.850000 -0.792518 -0.792475
61.900000 -0.792516 -0.792475
61.950000 -0.792514 -0.792475
62.000000 -0.792510 -0.792475
62.050000 -0.792506 -0.792475
62.100000 -0.792501 -0.792475
62.150000 -0.792495 -0.792475
62.200000 -0.792489 -0.792475
62.250000 -0.792483 -0.792475
62.300000 -0.792476 -0.792475
62.350000 -0.792470 -0.792475
62.400000 -0.792464 -0.792475
62.450000 -0.792458 -0.792475
62.500000 -0.792453 -0.792475
62.550000 -0.792448 -0.792475
62.600000 -0.792445 -0.792475
62.650000 -0.792442 -0.792475
62.700000 -0.792440 -0.792475
62.750000 -0.792439 -0.792475
62.800000 -0.792438 -0.792475
62.850000 -0.792439 -0.792475
62.900000 -0.792441 -0.792475
62.950000 -0.792443 -0.792475
63.000000 -0.792447 -0.792475
63.050000 -0.792451 -0.792475
63.100000 -0.792455 -0.792475
63.150000 -0.792460 -0.792475
63.200000 -0.792465 -0.792475
63.250000 -0.792470 -0.792475
63.300000 -0.792476 -0.792475
63.350000 -0.792481 -0.792475
63.400000 -0.792486 -0.792475
63.450000 -0.792490 -0.792475
63.500000 -0.792494 -0.792475
63.550000 -0.792498 -0.792475
63.600000 -0.792501 -0.792475
63.650000 -0.792503 -0.792475
63.700000 -0.792504 -0.792475
63.750000 -0.792505 -0.792475
63.800000 -0.792505 -0.792475
63.850000 -0.792504 -0.792475
63.900000 -0.792502 -0.792475
63.950000 -0.792500 -0.792475
64.000000 -0.792497 -0.792475
64.050000 -0.792493 -0.792475
64.100000 -0.792489 -0.792475
64.150000 -0.792485 -0.792475
64.200000 -0.792481 -0.792475
64.250000 -0.792476 -0.792475
64.300000 -0.792472 -0.792475
64.350000 -0.792468 -0.792475
64.400000 -0.792464 -0.792475
64.450000 -0.792460 -0.792475
64.500000 -0.792457 -0.792475
64.550000 -0.792454 -0.792475
64.600000 -0.792452 -0.792475
64.650000 -0.792451 -0.792475
64.700000 -0.792450 -0.792475
64.750000 -0.792450 -0.792475
64.800000 -0.792450 -0.792475
64.850000 -0.792451 -0.792475
64.900000 -0.792453 -0.792475
64.950000 -0.792455 -0.792475
65.000000 -0.792458 -0.792475
65.050000 -0.792461 -0.792475
65.100000 -0.792464 -0.792475
65.150000 -0.792468 -0.792475
65.200000 -0.792471 -0.792475
65.250000 -0.792475 -0.792475
65.300000 -0.792478 -0.792475
65.350000 -0.792482 -0.792475
65.400000 -0.792485 -0.792475
65.450000 -0.792488 -0.792475
65.500000 -0.792490 -0.792475
65.550000 -0.792492 -0.792475
65.600000 -0.792494 -0.792475
65.650000 -0.792495 -0.792475
65.700000 -0.792495 -0.792475
65.750000 -0.792495 -0.792475
65.800000 -0.792495 -0.792475
65.850000 -0.792494 -0.792475
65.900000 -0.792492 -0.792475
65.950000 -0.792490 -0.792475
66.000000 -0.792488 -0.792475
66.050000 -0.792485 -0.792475
66.100000 -0.792482 -0.792475
66.150000 -0.792479 -0.792475
66.200000 -0.792476 -0.792475
66.250000 -0.792473 -0.792475
66.300000 -0.792470 -0.792475
66.350000 -0.792468 -0.792475
66.400000 -0.792465 -0.792475
66.450000 -0.792463 -0.792475
66.500000 -0.792461 -0.792475
66.550000 -0.792459 -0.792475
66.600000 -0.792458 -0.792475
66.650000 -0.792458 -0.792475
66.700000 -0.792458 -0.792475
66.750000 -0.792458 -0.792475
66.800000 -0.792458 -0.792475
66.850000 -0.792459 -0.792475
66.900000 -0.792461 -0.792475
66.950000 -0.792463 -0.792475
67.000000 -0.792465 -0.792475
67.050000 -0.792467 -0.792475
67.100000 -0.792469 -0.792475
67.150000 -0.792472 -0.792475
67.200000 -0.792474 -0.792475
67.250000 -0.792477 -0.792475
67.300000 -0.792479 -0.792475
67.350000 -0.792481 -0.792475
67.400000 -0.792483 -0.792475
67.450000 -0.792485 -0.792475
67.500000 -0.792487 -0.792475
67.550000 -0.792488 -0.792475
67.600000 -0.792489 -0.792475
67.650000 -0.792489 -0.792475
67.700000 -0.792489 -0.792475
67.750000 -0.792489 -0.792475
67.800000 -0.792488 -0.792475
67.850000 -0.792487 -0.792475
67.900000 -0.792486 -0.792475
67.950000 -0.792484 -0.792475
68.000000 -0.792482 -0.792475
68.050000 -0.792480 -0.792475
68.100000 -0.792478 -0.792475
68.150000 -0.792476 -0.792475
68.200000 -0.792474 -0.792475
68.250000 -0.792472 -0.792475
68.300000 -0.792470 -0.792475
68.350000 -0.792468 -0.792475
68.400000 -0.792467 -0.792475
68.450000 -0.792465 -0.792475
68.500000 -0.792464 -0.792475
68.550000 -0.792464 -0.792475
68.600000 -0.792463 -0.792475
68.650000 -0.792463 -0.792475
68.700000 -0.792463 -0.792475
68.750000 -0.792463 -0.792475
68.800000 -0.792464 -0.792475
68.850000 -0.792465 -0.792475
68.900000 -0.792466 -0.792475
68.950000 -0.792468 -0.792475
69.000000 -0.792469 -0.792475
69.050000 -0.792471 -0.792475
69.100000 -0.792472 -0.792475
69.150000 -0.792474 -0.792475
69.200000 -0.792476 -0.792475
69.250000 -0.792478 -0.792475
69.300000 -0.792479 -0.792475
69.350000 -0.792481 -0.792475
69.400000 -0.792482 -0.792475
69.450000 -0.792483 -0.792475
69.500000 -0.792484 -0.792475
69.550000 -0.792484 -0.792475
69.600000 -0.792484 -0.792475
69.650000 -0.792485 -0.792475
69.700000 -0.792484 -0.792475
69.750000 -0.792484 -0.792475
69.800000 -0.792483 -0.792475
69.850000 -0.792482 -0.792475
69.900000 -0.792481 -0.792475
69.950000 -0.792480 -0.792475
70.000000 -0.792479 -0.792475
70.050000 -0.792477 -0.792475
70.100000 -0.792476 -0.792475
70.150000 -0.792475 -0.792475
70.200000 -0.792473 -0.792475
70.250000 -0.792472 -0.792475
70.300000 -0.792471 -0.792475
70.350000 -0.792469 -0.792475
70.400000 -0.792468 -0.792475
70.450000 -0.792468 -0.792475
70.500000 -0.792467 -0.792475
70.550000 -0.792467 -0.792475
70.600000 -0.792467 -0.792475
70.650000 -0.792467 -0.792475
70.700000 -0.792467 -0.792475
70.750000 -0.792467 -0.792475
70.800000 -0.792468 -0.792475
70.850000 -0.792469 -0.792475
70.900000 -0.792470 -0.792475
70.950000 -0.792471 -0.792475
71.000000 -0.792472 -0.792475
71.050000 -0.792473 -0.792475
71.100000 -0.792474 -0.792475
71.150000 -0.792475 -0.792475
71.200000 -0.792477 -0.792475
71.250000 -0.792478 -0.792475
71.300000 -0.792479 -0.792475
71.350000 -0.792479 -0.792475
71.400000 -0.792480 -0.792475
71.450000 -0.792481 -0.792475
71.500000 -0.792481 -0.792475
71.550000 -0.792481 -0.792475
71.600000 -0.792481 -0.792475
71.650000 -0.792481 -0.792475
71.700000 -0.792481 -0.792475
71.750000 -0.792481 -0.792475
71.800000 -0.792480 -0.792475
71.850000 -0.792479 -0.792475
71.900000 -0.792479 -0.792475
71.950000 -0.792478 -0.792475
72.000000 -0.792477 -0.792475
72.050000 -0.792476 -0.792475
72.100000 -0.792475 -0.792475
72.150000 -0.792474 -0.792475
72.200000 -0.792473 -0.792475
72.250000 -0.792472 -0.792475
72.300000 -0.792471 -0.792475
72.350000 -0.792471 -0.792475
72.400000 -0.792470 -0.792475
72.450000 -0.792470 -0.792475
72.500000 -0.792469 -0.792475
72.550000 -0.792469 -0.792475
72.600000 -0.792469 -0.792475
72.650000 -0.792469 -0.792475
72.700000 -0.792470 -0.792475
72.750000 -0.792470 -0.792475
72.800000 -0.792471 -0.792475
72.850000 -0.792471 -0.792475
72.900000 -0.792472 -0.792475
72.950000 -0.792473 -0.792475
73.000000 -0.792473 -0.792475
73.050000 -0.792474 -0.792475
73.100000 -0.792475 -0.792475
73.150000 -0.792476 -0.792475
73.200000 -0.792477 -0.792475
73.250000 -0.792477 -0.792475
73.300000 -0.792478 -0.792475
73.350000 -0.792478 -0.792475
73.400000 -0.792479 -0.792475
73.450000 -0.792479 -0.792475
73.500000 -0.792479 -0.792475
73.550000 -0.792479 -0.792475
73.600000 -0.792479 -0.792475
73.650000 -0.792479 -0.792475
73.700000 -0.792479 -0.792475
73.750000 -0.792478 -0.792475
73.800000 -0.792478 -0.792475
73.850000 -0.792477 -0.792475
73.900000 -0.792477 -0.792475
73.950000 -0.792476 -0.792475
74.000000 -0.792476 -0.792475
74.050000 -0.792475 -0.792475
74.100000 -0.792474 -0.792475
74.150000 -0.792474 -0.792475
74.200000 -0.792473 -0.792475
74.250000 -0.792472 -0.792475
74.300000 -0.792472 -0.792475
74.350000 -0.792471 -0.792475
74.400000 -0.792471 -0.792475
74.450000 -0.792471 -0.792475
74.500000 -0.792471 -0.792475
74.550000 -0.792471 -0.792475
74.600000 -0.792471 -0.792475
74.650000 -0.792471 -0.792475
74.700000 -0.792471 -0.792475
74.750000 -0.792472 -0.792475
74.800000 -0.792472 -0.792475
74.850000 -0.792473 -0.792475
74.900000 -0.792473 -0.792475
74.950000 -0.792474 -0.792475
75.000000 -0.792474 -0.792475
75.050000 -0.792475 -0.792475
75.100000 -0.792475 -0.792475
75.150000 -0.792476 -0.792475
75.200000 -0.792476 -0.792475
75.250000 -0.792477 -0.792475
75.300000 -0.792477 -0.792475
75.350000 -0.792477 -0.792475
75.400000 -0.792478 -0.792475
75.450000 -0.792478 -0.792475
75.500000 -0.792478 -0.792475
75.550000 -0.792478 -0.792475
75.600000 -0.792478 -0.792475
75.650000 -0.792478 -0.792475
75.700000 -0.792477 -0.792475
75.750000 -0.792477 -0.792475
75.800000 -0.792477 -0.792475
75.850000 -0.792476 -0.792475
75.900000 -0.792476 -0.792475
75.950000 -0.792475 -0.792475
76.000000 -0.792475 -0.792475
76.050000 -0.792474 -0.792475
76.100000 -0.792474 -0.792475
76.150000 -0.792474 -0.792475
76.200000 -0.792473 -0.792475
76.250000 -0.792473 -0.792475
76.300000 -0.792473 -0.792475
76.350000 -0.792472 -0.792475
76.400000 -0.792472 -0.792475
76.450000 -0.792472 -0.792475
76.500000 -0.792472 -0.792475
76.550000 -0.792472 -0.792475
76.600000 -0.792472 -0.792475
76.650000 -0.792472 -0.792475
76.700000 -0.792473 -0.792475
76.750000 -0.792473 -0.792475
76.800000 -0.792473 -0.792475
76.850000 -0.792474 -0.792475
76.900000 -0.792474 -0.792475
76.950000 -0.792474 -0.792475
77.000000 -0.792475 -0.792475
77.050000 -0.792475 -0.792475
77.100000 -0.792475 -0.792475
77.150000 -0.792476 -0.792475
77.200000 -0.792476 -0.792475
77.250000 -0.792476 -0.792475
77.300000 -0.792477 -0.792475
77.350000 -0.792477 -0.792475
77.400000 -0.792477 -0.792475
77.450000 -0.792477 -0.792475
77.500000 -0.792477 -0.792475
77.550000 -0.792477 -0.792475
77.600000 -0.792477 -0.792475
77.650000 -0.792477 -0.792475
77.700000 -0.792476 -0.792475
77.750000 -0.792476 -0.792475
77.800000 -0.792476 -0.792475
77.850000 -0.792476 -0.792475
77.900000 -0.792475 -0.792475
77.950000 -0.792475 -0.792475
78.000000 -0.792475 -0.792475
78.050000 -0.792474 -0.792475
78.100000 -0.792474 -0.792475
78.150000 -0.792474 -0.792475
78.200000 -0.792473 -0.792475
78.250000 -0.792473 -0.792475
78.300000 -0.792473 -0.792475
78.350000 -0.792473 -0.792475
78.400000 -0.792473 -0.792475
78.450000 -0.792473 -0.792475
78.500000 -0.792473 -0.792475
78.550000 -0.792473 -0.792475
78.600000 -0.792473 -0.792475
78.650000 -0.792473 -0.792475
78.700000 -0.792473 -0.792475
78.750000 -0.792474 -0.792475
78.800000 -0.792474 -0.792475
78.850000 -0.792474 -0.792475
78.900000 -0.792474 -0.792475
78.950000 -0.792475 -0.792475
79.000000 -0.792475 -0.792475
79.050000 -0.792475 -0.792475
79.100000 -0.792475 -0.792475
79.150000 -0.792476 -0.792475
79.200000 -0.792476 -0.792475
79.250000 -0.792476 -0.792475
79.300000 -0.792476 -0.792475
79.350000 -0.792476 -0.792475
79.400000 -0.792476 -0.792475
79.450000 -0.792476 -0.792475
79.500000 -0.792476 -0.792475
79.550000 -0.792476 -0.792475
79.600000 -0.792476 -0.792475
79.650000 -0.792476 -0.792475
79.700000 -0.792476 -0.792475
79.750000 -0.792475 -0.792475
79.800000 -0.792475 -0.792475
79.850000 -0.792475 -0.792475
79.900000 -0.792475 -0.792475
79.950000 -0.792475 -0.792475
80.000000 -0.792474 -0.792475
80.050000 -0.792474 -0.792475
80.100000 -0.792474 -0.792475
80.150000 -0.792474 -0.792475
80.200000 -0.792474 -0.792475
80.250000 -0.792474 -0.792475
80.300000 -0.792474 -0.792475
80.350000 -0.792473 -0.792475
80.400000 -0.792473 -0.792475
80.450000 -0.792473 -0.792475
80.500000 -0.792474 -0.792475
80.550000 -0.792474 -0.792475
80.600000 -0.792474 -0.792475
80.650000 -0.792474 -0.792475
80.700000 -0.792474 -0.792475
80.750000 -0.792474 -0.792475
80.800000 -0.792474 -0.792475
80.850000 -0.792474 -0.792475
80.900000 -0.792475 -0.792475
80.950000 -0.792475 -0.792475
81.000000 -0.792475 -0.792475
81.050000 -0.792475 -0.792475
81.100000 -0.792475 -0.792475
81.150000 -0.792475 -0.792475
81.200000 -0.792476 -0.792475
81.250000 -0.792476 -0.792475
81.300000 -0.792476 -0.792475
81.350000 -0.792476 -0.792475
81.400000 -0.792476 -0.792475
81.450000 -0.792476 -0.792475
81.500000 -0.792476 -0.792475
81.550000 -0.792476 -0.792475
81.600000 -0.792476 -0.792475
81.650000 -0.792475 -0.792475
81.700000 -0.792475 -0.792475
81.750000 -0.792475 -0.792475
81.800000 -0.792475 -0.792475
81.850000 -0.792475 -0.792475
81.900000 -0.792475 -0.792475
81.950000 -0.792475 -0.792475
82.000000 -0.792474 -0.792475
82.050000 -0.792474 -0.792475
82.100000 -0.792474 -0.792475
82.150000 -0.792474 -0.792475
82.200000 -0.792474 -0.792475
82.250000 -0.792474 -0.792475
82.300000 -0.792474 -0.792475
82.350000 -0.792474 -0.792475
82.400000 -0.792474 -0.792475
82.450000 -0.792474 -0.792475
82.500000 -0.792474 -0.792475
82.550000 -0.792474 -0.792475
82.600000 -0.792474 -0.792475
82.650000 -0.792474 -0.792475
82.700000 -0.792474 -0.792475
82.750000 -0.792474 -0.792475
82.800000 -0.792475 -0.792475
82.850000 -0.792475 -0.792475
82.900000 -0.792475 -0.792475
82.950000 -0.792475 -0.792475
83.000000 -0.792475 -0.792475
83.050000 -0.792475 -0.792475
83.100000 -0.792475 -0.792475
83.150000 -0.792475 -0.792475
83.200000 -0.792475 -0.792475
83.250000 -0.792475 -0.792475
83.300000 -0.792475 -0.792475
83.350000 -0.792475 -0.792475
83.400000 -0.792475 -0.792475
83.450000 -0.792475 -0.792475
83.500000 -0.792475 -0.792475
83.550000 -0.792475 -0.792475
83.600000 -0.792475 -0.792475
83.650000 -0.792475 -0.792475
83.700000 -0.792475 -0.792475
83.750000 -0.792475 -0.792475
83.800000 -0.792475 -0.792475
83.850000 -0.792475 -0.792475
83.900000 -0.792475 -0.792475
83.950000 -0.792475 -0.792475
84.000000 -0.792474 -0.792475
84.050000 -0.792474 -0.792475
84.100000 -0.792474 -0.792475
84.150000 -0.792474 -0.792475
84.200000 -0.792474 -0.792475
84.250000 -0.792474 -0.792475
84.300000 -0.792474 -0.792475
84.350000 -0.792474 -0.792475
84.400000 -0.792474 -0.792475
84.450000 -0.792474 -0.792475
84.500000 -0.792474 -0.792475
84.550000 -0.792474 -0.792475
84.600000 -0.792474 -0.792475
84.650000 -0.792474 -0.792475
84.700000 -0.792474 -0.792475
84.750000 -0.792475 -0.792475
84.800000 -0.792475 -0.792475
84.850000 -0.792475 -0.792475
84.900000 -0.792475 -0.792475
84.950000 -0.792475 -0.792475
85.000000 -0.792475 -0.792475
85.050000 -0.792475 -0.792475
85.100000 -0.792475 -0.792475
85.150000 -0.792475 -0.792475
85.200000 -0.792475 -0.792475
85.250000 -0.792475 -0.792475
85.300000 -0.792475 -0.792475
85.350000 -0.792475 -0.792475
85.400000 -0.792475 -0.792475
85.450000 -0.792475 -0.792475
85.500000 -0.792475 -0.792475
85.550000 -0.792475 -0.792475
85.600000 -0.792475 -0.792475
85.650000 -0.792475 -0.792475
85.700000 -0.792475 -0.792475
85.750000 -0.792475 -0.792475
85.800000 -0.792475 -0.792475
85.850000 -0.792475 -0.792475
85.900000 -0.792475 -0.792475
85.950000 -0.792475 -0.792475
86.000000 -0.792474 -0.792475
86.050000 -0.792474 -0.792475
86.100000 -0.792474 -0.792475
86.150000 -0.792474 -0.792475
86.200000 -0.792474 -0.792475
86.250000 -0.792474 -0.792475
86.300000 -0.792474 -0.792475
86.350000 -0.792474 -0.792475
86.400000 -0.792474 -0.792475
86.450000 -0.792474 -0.792475
86.500000 -0.792474 -0.792475
86.550000 -0.792474 -0.792475
86.600000 -0.792474 -0.792475
86.650000 -0.792475 -0.792475
86.700000 -0.792475 -0.792475
86.750000 -0.792475 -0.792475
86.800000 -0.792475 -0.792475
86.850000 -0.792475 -0.792475
86.900000 -0.792475 -0.792475
86.950000 -0.792475 -0.792475
87.000000 -0.792475 -0.792475
87.050000 -0.792475 -0.792475
87.100000 -0.792475 -0.792475
87.150000 -0.792475 -0.792475
87.200000 -0.792475 -0.792475
87.250000 -0.792475 -0.792475
87.300000 -0.792475 -0.792475
87.350000 -0.792475 -0.792475
87.400000 -0.792475 -0.792475
87.450000 -0.792475 -0.792475
87.500000 -0.792475 -0.792475
87.550000 -0.792475 -0.792475
87.600000 -0.792475 -0.792475
87.650000 -0.792475 -0.792475
87.700000 -0.792475 -0.792475
87.750000 -0.792475 -0.792475
87.800000 -0.792475 -0.792475
87.850000 -0.792475 -0.792475
87.900000 -0.792475 -0.792475
87.950000 -0.792475 -0.792475
88.000000 -0.792475 -0.792475
88.050000 -0.792474 -0.792475
88.100000 -0.792474 -0.792475
88.150000 -0.792474 -0.792475
88.200000 -0.792474 -0.792475
88.250000 -0.792474 -0.792475
88.300000 -0.792474 -0.792475
88.350000 -0.792474 -0.792475
88.400000 -0.792474 -0.792475
88.450000 -0.792474 -0.792475
88.500000 -0.792475 -0.792475
88.550000 -0.792475 -0.792475
88.600000 -0.792475 -0.792475
88.650000 -0.792475 -0.792475
88.700000 -0.792475 -0.792475
88.750000 -0.792475 -0.792475
88.800000 -0.792475 -0.792475
88.850000 -0.792475 -0.792475
88.900000 -0.792475 -0.792475
88.950000 -0.792475 -0.792475
89.000000 -0.792475 -0.792475
89.050000 -0.792475 -0.792475
89.100000 -0.792475 -0.792475
89.150000 -0.792475 -0.792475
89.200000 -0.792475 -0.792475
89.250000 -0.792475 -0.792475
89.300000 -0.792475 -0.792475
89.350000 -0.792475 -0.792475
89.400000 -0.792475 -0.792475
89.450000 -0.792475 -0.792475
89.500000 -0.792475 -0.792475
89.550000 -0.792475 -0.792475
89.600000 -0.792475 -0.792475
89.650000 -0.792475 -0.792475
89.700000 -0.792475 -0.792475
89.750000 -0.792475 -0.792475
89.800000 -0.792475 -0.792475
89.850000 -0.792475 -0.792475
89.900000 -0.792475 -0.792475
89.950000 -0.792475 -0.792475
90.000000 -0.792475 -0.792475
90.050000 -0.792475 -0.792475
90.100000 -0.792475 -0.792475
90.150000 -0.792475 -0.792475
90.200000 -0.792475 -0.792475
90.250000 -0.792475 -0.792475
90.300000 -0.792475 -0.792475
90.350000 -0.792475 -0.792475
90.400000 -0.792475 -0.792475
90.450000 -0.792475 -0.792475
90.500000 -0.792475 -0.792475
90.550000 -0.792475 -0.792475
90.600000 -0.792475 -0.792475
90.650000 -0.792475 -0.792475
90.700000 -0.792475 -0.792475
90.750000 -0.792475 -0.792475
90.800000 -0.792475 -0.792475
90.850000 -0.792475 -0.792475
90.900000 -0.792475 -0.792475
90.950000 -0.792475 -0.792475
91.000000 -0.792475 -0.792475
91.050000 -0.792475 -0.792475
91.100000 -0.792475 -0.792475
91.150000 -0.792475 -0.792475
91.200000 -0.792475 -0.792475
91.250000 -0.792475 -0.792475
91.300000 -0.792475 -0.792475
91.350000 -0.792475 -0.792475
91.400000 -0.792475 -0.792475
91.450000 -0.792475 -0.792475
91.500000 -0.792475 -0.792475
91.550000 -0.792475 -0.792475
91.600000 -0.792475 -0.792475
91.650000 -0.792475 -0.792475
91.700000 -0.792475 -0.792475
91.750000 -0.792475 -0.792475
91.800000 -0.792475 -0.792475
91.850000 -0.792475 -0.792475
91.900000 -0.792475 -0.792475
91.950000 -0.792475 -0.792475
92.000000 -0.792475 -0.792475
92.050000 -0.792475 -0.792475
92.100000 -0.792475 -0.792475
92.150000 -0.792475 -0.792475
92.200000 -0.792475 -0.792475
92.250000 -0.792475 -0.792475
92.300000 -0.792475 -0.792475
92.350000 -0.792475 -0.792475
92.400000 -0.792475 -0.792475
92.450000 -0.792475 -0.792475
92.500000 -0.792475 -0.792475
92.550000 -0.792475 -0.792475
92.600000 -0.792475 -0.792475
92.650000 -0.792475 -0.792475
92.700000 -0.792475 -0.792475
92.750000 -0.792475 -0.792475
92.800000 -0.792475 -0.792475
92.850000 -0.792475 -0.792475
92.900000 -0.792475 -0.792475
92.950000 -0.792475 -0.792475
93.000000 -0.792475 -0.792475
93.050000 -0.792475 -0.792475
93.100000 -0.792475 -0.792475
93.150000 -0.792475 -0.792475
93.200000 -0.792475 -0.792475
93.250000 -0.792475 -0.792475
93.300000 -0.792475 -0.792475
93.350000 -0.792475 -0.792475
93.400000 -0.792475 -0.792475
93.450000 -0.792475 -0.792475
93.500000 -0.792475 -0.792475
93.550000 -0.792475 -0.792475
93.600000 -0.792475 -0.792475
93.650000 -0.792475 -0.792475
93.700000 -0.792475 -0.792475
93.750000 -0.792475 -0.792475
93.800000 -0.792475 -0.792475
93.850000 -0.792475 -0.792475
93.900000 -0.792475 -0.792475
93.950000 -0.792475 -0.792475
94.000000 -0.792475 -0.792475
94.050000 -0.792475 -0.792475
94.100000 -0.792475 -0.792475
94.150000 -0.792475 -0.792475
94.200000 -0.792475 -0.792475
94.250000 -0.792475 -0.792475
94.300000 -0.792475 -0.792475
94.350000 -0.792475 -0.792475
94.400000 -0.792475 -0.792475
94.450000 -0.792475 -0.792475
94.500000 -0.792475 -0.792475
94.550000 -0.792475 -0.792475
94.600000 -0.792475 -0.792475
94.650000 -0.792475 -0.792475
94.700000 -0.792475 -0.792475
94.750000 -0.792475 -0.792475
94.800000 -0.792475 -0.792475
94.850000 -0.792475 -0.792475
94.900000 -0.792475 -0.792475
94.950000 -0.792475 -0.792475
95.000000 -0.792475 -0.792475
95.050000 -0.792475 -0.792475
95.100000 -0.792475 -0.792475
95.150000 -0.792475 -0.792475
95.200000 -0.792475 -0.792475
95.250000 -0.792475 -0.792475
95.300000 -0.792475 -0.792475
95.350000 -0.792475 -0.792475
95.400000 -0.792475 -0.792475
95.450000 -0.792475 -0.792475
95.500000 -0.792475 -0.792475
95.550000 -0.792475 -0.792475
95.600000 -0.792475 -0.792475
95.650000 -0.792475 -0.792475
95.700000 -0.792475 -0.792475
95.750000 -0.792475 -0.792475
95.800000 -0.792475 -0.792475
95.850000 -0.792475 -0.792475
95.900000 -0.792475 -0.792475
95.950000 -0.792475 -0.792475
96.000000 -0.792475 -0.792475
96.050000 -0.792475 -0.792475
96.100000 -0.792475 -0.792475
96.150000 -0.792475 -0.792475
96.200000 -0.792475 -0.792475
96.250000 -0.792475 -0.792475
96.300000 -0.792475 -0.792475
96.350000 -0.792475 -0.792475
96.400000 -0.792475 -0.792475
96.450000 -0.792475 -0.792475
96.500000 -0.792475 -0.792475
96.550000 -0.792475 -0.792475
96.600000 -0.792475 -0.792475
96.650000 -0.792475 -0.792475
96.700000 -0.792475 -0.792475
96.750000 -0.792475 -0.792475
96.800000 -0.792475 -0.792475
96.850000 -0.792475 -0.792475
96.900000 -0.792475 -0.792475
96.950000 -0.792475 -0.792475
97.000000 -0.792475 -0.792475
97.050000 -0.792475 -0.792475
97.100000 -0.792475 -0.792475
97.150000 -0.792475 -0.792475
97.200000 -0.792475 -0.792475
97.250000 -0.792475 -0.792475
97.300000 -0.792475 -0.792475
97.350000 -0.792475 -0.792475
97.400000 -0.792475 -0.792475
97.450000 -0.792475 -0.792475
97.500000 -0.792475 -0.792475
97.550000 -0.792475 -0.792475
97.600000 -0.792475 -0.792475
97.650000 -0.792475 -0.792475
97.700000 -0.792475 -0.792475
97.750000 -0.792475 -0.792475
97.800000 -0.792475 -0.792475
97.850000 -0.792475 -0.792475
97.900000 -0.792475 -0.792475
97.950000 -0.792475 -0.792475
98.000000 -0.792475 -0.792475
98.050000 -0.792475 -0.792475
98.100000 -0.792475 -0.792475
98.150000 -0.792475 -0.792475
98.200000 -0.792475 -0.792475
98.250000 -0.792475 -0.792475
98.300000 -0.792475 -0.792475
98.350000 -0.792475 -0.792475
98.400000 -0.792475 -0.792475
98.450000 -0.792475 -0.792475
98.500000 -0.792475 -0.792475
98.550000 -0.792475 -0.792475
98.600000 -0.792475 -0.792475
98.650000 -0.792475 -0.792475
98.700000 -0.792475 -0.792475
98.750000 -0.792475 -0.792475
98.800000 -0.792475 -0.792475
98.850000 -0.792475 -0.792475
98.900000 -0.792475 -0.792475
98.950000 -0.792475 -0.792475
99.000000 -0.792475 -0.792475
99.050000 -0.792475 -0.792475
99.100000 -0.792475 -0.792475
99.150000 -0.792475 -0.792475
99.200000 -0.792475 -0.792475
99.250000 -0.792475 -0.792475
99.300000 -0.792475 -0.792475
99.350000 -0.792475 -0.792475
99.400000 -0.792475 -0.792475
99.450000 -0.792475 -0.792475
99.500000 -0.792475 -0.792475
99.550000 -0.792475 -0.792475
99.600000 -0.792475 -0.792475
99.650000 -0.792475 -0.792475
99.700000 -0.792475 -0.792475
99.750000 -0.792475 -0.792475
99.800000 -0.792475 -0.792475
99.850000 -0.792475 -0.792475
99.900000 -0.792475 -0.792475
99.950000 -0.792475 -0.792475
100.000000 -0.792475 -0.792475
100.050000 -0.792475 -0.792475
100.100000 -0.792475 -0.792475
100.150000 -0.792475 -0.792475
100.200000 -0.792475 -0.792475
100.250000 -0.792475 -0.792475
100.300000 -0.792475 -0.792475
100.350000 -0.792475 -0.792475
100.400000 -0.792475 -0.792475
100.450000 -0.792475 -0.792475
100.500000 -0.792475 -0.792475
100.550000 -0.792475 -0.792475
100.600000 -0.792475 -0.792475
100.650000 -0.792475 -0.792475
100.700000 -0.792475 -0.792475
100.750000 -0.792475 -0.792475
100.800000 -0.792475 -0.792475
100.850000 -0.792475 -0.792475
100.900000 -0.792475 -0.792475
100.950000 -0.792475 -0.792475
101.000000 -0.792475 -0.792475
101.050000 -0.792475 -0.792475
101.100000 -0.792475 -0.792475
101.150000 -0.792475 -0.792475
101.200000 -0.792475 -0.792475
101.250000 -0.792475 -0.792475
101.300000 -0.792475 -0.792475
101.350000 -0.792475 -0.792475
101.400000 -0.792475 -0.792475
101.450000 -0.792475 -0.792475
101.500000 -0.792475 -0.792475
101.550000 -0.792475 -0.792475
101.600000 -0.792475 -0.792475
101.650000 -0.792475 -0.792475
101.700000 -0.792475 -0.792475
101.750000 -0.792475 -0.792475
101.800000 -0.792475 -0.792475
101.850000 -0.792475 -0.792475
101.900000 -0.792475 -0.792475
101.950000 -0.792475 -0.792475
102.000000 -0.792475 -0.792475
102.050000 -0.792475 -0.792475
102.100000 -0.792475 -0.792475
102.150000 -0.792475 -0.792475
102.200000 -0.792475 -0.792475
102.250000 -0.792475 -0.792475
102.300000 -0.792475 -0.792475
102.350000 -0.792475 -0.792475
102.400000 -0.792475 -0.792475
102.450000 -0.792475 -0.792475
102.500000 -0.792475 -0.792475
102.550000 -0.792475 -0.792475
102.600000 -0.792475 -0.792475
102.650000 -0.792475 -0.792475
102.700000 -0.792475 -0.792475
102.750000 -0.792475 -0.792475
102.800000 -0.792475 -0.792475
102.850000 -0.792475 -0.792475
102.900000 -0.792475 -0.792475
102.950000 -0.792475 -0.792475
103.000000 -0.792475 -0.792475
103.050000 -0.792475 -0.792475
103.100000 -0.792475 -0.792475
103.150000 -0.792475 -0.792475
103.200000 -0.792475 -0.792475
103.250000 -0.792475 -0.792475
103.300000 -0.792475 -0.792475
103.350000 -0.792475 -0.792475
103.400000 -0.792475 -0.792475
103.450000 -0.792475 -0.792475
103.500000 -0.792475 -0.792475
103.550000 -0.792475 -0.792475
103.600000 -0.792475 -0.792475
103.650000 -0.792475 -0.792475
103.700000 -0.792475 -0.792475
103.750000 -0.792475 -0.792475
103.800000 -0.792475 -0.792475
103.850000 -0.792475 -0.792475
103.900000 -0.792475 -0.792475
103.950000 -0.792475 -0.792475
104.000000 -0.792475 -0.792475
104.050000 -0.792475 -0.792475
104.100000 -0.792475 -0.792475
104.150000 -0.792475 -0.792475
104.200000 -0.792475 -0.792475
104.250000 -0.792475 -0.792475
104.300000 -0.792475 -0.792475
104.350000 -0.792475 -0.792475
104.400000 -0.792475 -0.792475
104.450000 -0.792475 -0.792475
104.500000 -0.792475 -0.792475
104.550000 -0.792475 -0.792475
104.600000 -0.792475 -0.792475
104.650000 -0.792475 -0.792475
104.700000 -0.792475 -0.792475
104.750000 -0.792475 -0.792475
104.800000 -0.792475 -0.792475
104.850000 -0.792475 -0.792475
104.900000 -0.792475 -0.792475
104.950000 -0.792475 -0.792475
105.000000 -0.792475 -0.792475
105.050000 -0.792475 -0.792475
105.100000 -0.792475 -0.792475
105.150000 -0.792475 -0.792475
105.200000 -0.792475 -0.792475
105.250000 -0.792475 -0.792475
105.300000 -0.792475 -0.792475
105.350000 -0.792475 -0.792475
105.400000 -0.792475 -0.792475
105.450000 -0.792475 -0.792475
105.500000 -0.792475 -0.792475
105.550000 -0.792475 -0.792475
105.600000 -0.792475 -0.792475
105.650000 -0.792475 -0.792475
105.700000 -0.792475 -0.792475
105.750000 -0.792475 -0.792475
105.800000 -0.792475 -0.792475
105.850000 -0.792475 -0.792475
105.900000 -0.792475 -0.792475
105.950000 -0.792475 -0.792475
106.000000 -0.792475 -0.792475
106.050000 -0.792475 -0.792475
106.100000 -0.792475 -0.792475
106.150000 -0.792475 -0.792475
106.200000 -0.792475 -0.792475
106.250000 -0.792475 -0.792475
106.300000 -0.792475 -0.792475
106.350000 -0.792475 -0.792475
106.400000 -0.792475 -0.792475
106.450000 -0.792475 -0.792475
106.500000 -0.792475 -0.792475
106.550000 -0.792475 -0.792475
106.600000 -0.792475 -0.792475
106.650000 -0.792475 -0.792475
106.700000 -0.792475 -0.792475
106.750000 -0.792475 -0.792475
106.800000 -0.792475 -0.792475
106.850000 -0.792475 -0.792475
106.900000 -0.792475 -0.792475
106.950000 -0.792475 -0.792475
107.000000 -0.792475 -0.792475
107.050000 -0.792475 -0.792475
107.100000 -0.792475 -0.792475
107.150000 -0.792475 -0.792475
107.200000 -0.792475 -0.792475
107.250000 -0.792475 -0.792475
107.300000 -0.792475 -0.792475
107.350000 -0.792475 -0.792475
107.400000 -0.792475 -0.792475
107.450000 -0.792475 -0.792475
107.500000 -0.792475 -0.792475
107.550000 -0.792475 -0.792475
107.600000 -0.792475 -0.792475
107.650000 -0.792475 -0.792475
107.700000 -0.792475 -0.792475
107.750000 -0.792475 -0.792475
107.800000 -0.792475 -0.792475
107.850000 -0.792475 -0.792475
107.900000 -0.792475 -0.792475
107.950000 -0.792475 -0.792475
108.000000 -0.792475 -0.792475
108.050000 -0.792475 -0.792475
108.100000 -0.792475 -0.792475
108.150000 -0.792475 -0.792475
108.200000 -0.792475 -0.792475
108.250000 -0.792475 -0.792475
108.300000 -0.792475 -0.792475
108.350000 -0.792475 -0.792475
108.400000 -0.792475 -0.792475
108.450000 -0.792475 -0.792475
108.500000 -0.792475 -0.792475
108.550000 -0.792475 -0.792475
108.600000 -0.792475 -0.792475
108.650000 -0.792475 -0.792475
108.700000 -0.792475 -0.792475
108.750000 -0.792475 -0.792475
108.800000 -0.792475 -0.792475
108.850000 -0.792475 -0.792475
108.900000 -0.792475 -0.792475
108.950000 -0.792475 -0.792475
109.000000 -0.792475 -0.792475
109.050000 -0.792475 -0.792475
109.100000 -0.792475 -0.792475
109.150000 -0.792475 -0.792475
109.200000 -0.792475 -0.792475
109.250000 -0.792475 -0.792475
109.300000 -0.792475 -0.792475
109.350000 -0.792475 -0.792475
109.400000 -0.792475 -0.792475
109.450000 -0.792475 -0.792475
109.500000 -0.792475 -0.792475
109.550000 -0.792475 -0.792475
109.600000 -0.792475 -0.792475
109.650000 -0.792475 -0.792475
109.700000 -0.792475 -0.792475
109.750000 -0.792475 -0.792475
109.800000 -0.792475 -0.792475
109.850000 -0.792475 -0.792475
109.900000 -0.792475 -0.792475
109.950000 -0.792475 -0.792475
110.000000 -0.792475 -0.792475
110.050000 -0.792475 -0.792475
110.100000 -0.792475 -0.792475
110.150000 -0.792475 -0.792475
110.200000 -0.792475 -0.792475
110.250000 -0.792475 -0.792475
110.300000 -0.792475 -0.792475
110.350000 -0.792475 -0.792475
110.400000 -0.792475 -0.792475
110.450000 -0.792475 -0.792475
110.500000 -0.792475 -0.792475
110.550000 -0.792475 -0.792475
110.600000 -0.792475 -0.792475
110.650000 -0.792475 -0.792475
110.700000 -0.792475 -0.792475
110.750000 -0.792475 -0.792475
110.800000 -0.792475 -0.792475
110.850000 -0.792475 -0.792475
110.900000 -0.792475 -0.792475
110.950000 -0.792475 -0.792475
111.000000 -0.792475 -0.792475
111.050000 -0.792475 -0.792475
111.100000 -0.792475 -0.792475
111.150000 -0.792475 -0.792475
111.200000 -0.792475 -0.792475
111.250000 -0.792475 -0.792475
111.300000 -0.792475 -0.792475
111.350000 -0.792475 -0.792475
111.400000 -0.792475 -0.792475
111.450000 -0.792475 -0.792475
111.500000 -0.792475 -0.792475
111.550000 -0.792475 -0.792475
111.600000 -0.792475 -0.792475
111.650000 -0.792475 -0.792475
111.700000 -0.792475 -0.792475
111.750000 -0.792475 -0.792475
111.800000 -0.792475 -0.792475
111.850000 -0.792475 -0.792475
111.900000 -0.792475 -0.792475
111.950000 -0.792475 -0.792475
112.000000 -0.792475 -0.792475
112.050000 -0.792475 -0.792475
112.100000 -0.792475 -0.792475
112.150000 -0.792475 -0.792475
112.200000 -0.792475 -0.792475
112.250000 -0.792475 -0.792475
112.300000 -0.792475 -0.792475
112.350000 -0.792475 -0.792475
112.400000 -0.792475 -0.792475
112.450000 -0.792475 -0.792475
112.500000 -0.792475 -0.792475
112.550000 -0.792475 -0.792475
112.600000 -0.792475 -0.792475
112.650000 -0.792475 -0.792475
112.700000 -0.792475 -0.792475
112.750000 -0.792475 -0.792475
112.800000 -0.792475 -0.792475
112.850000 -0.792475 -0.792475
112.900000 -0.792475 -0.792475
112.950000 -0.792475 -0.792475
113.000000 -0.792475 -0.792475
113.050000 -0.792475 -0.792475
113.100000 -0.792475 -0.792475
113.150000 -0.792475 -0.792475
113.200000 -0.792475 -0.792475
113.250000 -0.792475 -0.792475
113.300000 -0.792475 -0.792475
113.350000 -0.792475 -0.792475
113.400000 -0.792475 -0.792475
113.450000 -0.792475 -0.792475
113.500000 -0.792475 -0.792475
113.550000 -0.792475 -0.792475
113.600000 -0.792475 -0.792475
113.650000 -0.792475 -0.792475
113.700000 -0.792475 -0.792475
113.750000 -0.792475 -0.792475
113.800000 -0.792475 -0.792475
113.850000 -0.792475 -0.792475
113.900000 -0.792475 -0.792475
113.950000 -0.792475 -0.792475
114.000000 -0.792475 -0.792475
114.050000 -0.792475 -0.792475
114.100000 -0.792475 -0.792475
114.150000 -0.792475 -0.792475
114.200000 -0.792475 -0.792475
114.250000 -0.792475 -0.792475
114.300000 -0.792475 -0.792475
114.350000 -0.792475 -0.792475
114.400000 -0.792475 -0.792475
114.450000 -0.792475 -0.792475
114.500000 -0.792475 -0.792475
114.550000 -0.792475 -0.792475
114.600000 -0.792475 -0.792475
114.650000 -0.792475 -0.792475
114.700000 -0.792475 -0.792475
114.750000 -0.792475 -0.792475
114.800000 -0.792475 -0.792475
114.850000 -0.792475 -0.792475
114.900000 -0.792475 -0.792475
114.950000 -0.792475 -0.792475
115.000000 -0.792475 -0.792475
115.050000 -0.792475 -0.792475
115.100000 -0.792475 -0.792475
115.150000 -0.792475 -0.792475
115.200000 -0.792475 -0.792475
115.250000 -0.792475 -0.792475
115.300000 -0.792475 -0.792475
115.350000 -0.792475 -0.792475
115.400000 -0.792475 -0.792475
115.450000 -0.792475 -0.792475
115.500000 -0.792475 -0.792475
115.550000 -0.792475 -0.792475
115.600000 -0.792475 -0.792475
115.650000 -0.792475 -0.792475
115.700000 -0.792475 -0.792475
115.750000 -0.792475 -0.792475
115.800000 -0.792475 -0.792475
115.850000 -0.792475 -0.792475
115.900000 -0.792475 -0.792475
115.950000 -0.792475 -0.792475
116.000000 -0.792475 -0.792475
116.050000 -0.792475 -0.792475
116.100000 -0.792475 -0.792475
116.150000 -0.792475 -0.792475
116.200000 -0.792475 -0.792475
116.250000 -0.792475 -0.792475
116.300000 -0.792475 -0.792475
116.350000 -0.792475 -0.792475
116.400000 -0.792475 -0.792475
116.450000 -0.792475 -0.792475
116.500000 -0.792475 -0.792475
116.550000 -0.792475 -0.792475
116.600000 -0.792475 -0.792475
116.650000 -0.792475 -0.792475
116.700000 -0.792475 -0.792475
116.750000 -0.792475 -0.792475
116.800000 -0.792475 -0.792475
116.850000 -0.792475 -0.792475
116.900000 -0.792475 -0.792475
116.950000 -0.792475 -0.792475
117.000000 -0.792475 -0.792475
117.050000 -0.792475 -0.792475
117.100000 -0.792475 -0.792475
117.150000 -0.792475 -0.792475
117.200000 -0.792475 -0.792475
117.250000 -0.792475 -0.792475
117.300000 -0.792475 -0.792475
117.350000 -0.792475 -0.792475
117.400000 -0.792475 -0.792475
117.450000 -0.792475 -0.792475
117.500000 -0.792475 -0.792475
117.550000 -0.792475 -0.792475
117.600000 -0.792475 -0.792475
117.650000 -0.792475 -0.792475
117.700000 -0.792475 -0.792475
117.750000 -0.792475 -0.792475
117.800000 -0.792475 -0.792475
117.850000 -0.792475 -0.792475
117.900000 -0.792475 -0.792475
117.950000 -0.792475 -0.792475
118.000000 -0.792475 -0.792475
118.050000 -0.792475 -0.792475
118.100000 -0.792475 -0.792475
118.150000 -0.792475 -0.792475
118.200000 -0.792475 -0.792475
118.250000 -0.792475 -0.792475
118.300000 -0.792475 -0.792475
118.350000 -0.792475 -0.792475
118.400000 -0.792475 -0.792475
118.450000 -0.792475 -0.792475
118.500000 -0.792475 -0.792475
118.550000 -0.792475 -0.792475
118.600000 -0.792475 -0.792475
118.650000 -0.792475 -0.792475
118.700000 -0.792475 -0.792475
118.750000 -0.792475 -0.792475
118.800000 -0.792475 -0.792475
118.850000 -0.792475 -0.792475
118.900000 -0.792475 -0.792475
118.950000 -0.792475 -0.792475
119.000000 -0.792475 -0.792475
119.050000 -0.792475 -0.792475
119.100000 -0.792475 -0.792475
119.150000 -0.792475 -0.792475
119.200000 -0.792475 -0.792475
119.250000 -0.792475 -0.792475
119.300000 -0.792475 -0.792475
119.350000 -0.792475 -0.792475
119.400000 -0.792475 -0.792475
119.450000 -0.792475 -0.792475
119.500000 -0.792475 -0.792475
119.550000 -0.792475 -0.792475
119.600000 -0.792475 -0.792475
119.650000 -0.792475 -0.792475
119.700000 -0.792475 -0.792475
119.750000 -0.792475 -0.792475
119.800000 -0.792475 -0.792475
119.850000 -0.792475 -0.792475
119.900000 -0.792475 -0.792475
119.950000 -0.792475 -0.792475
120.000000 -0.792475 -0.792475
120.050000 -0.792475 -0.792475
120.100000 -0.792475 -0.792475
120.150000 -0.792475 -0.792475
120.200000 -0.792475 -0.792475
120.250000 -0.792475 -0.792475
120.300000 -0.792475 -0.792475
120.350000 -0.792475 -0.792475
120.400000 -0.792475 -0.792475
120.450000 -0.792475 -0.792475
120.500000 -0.792475 -0.792475
120.550000 -0.792475 -0.792475
120.600000 -0.792475 -0.792475
120.650000 -0.792475 -0.792475
120.700000 -0.792475 -0.792475
120.750000 -0.792475 -0.792475
120.800000 -0.792475 -0.792475
120.850000 -0.792475 -0.792475
120.900000 -0.792475 -0.792475
120.950000 -0.792475 -0.792475
121.000000 -0.792475 -0.792475
121.050000 -0.792475 -0.792475
121.100000 -0.792475 -0.792475
121.150000 -0.792475 -0.792475
121.200000 -0.792475 -0.792475
121.250000 -0.792475 -0.792475
121.300000 -0.792475 -0.792475
121.350000 -0.792475 -0.792475
121.400000 -0.792475 -0.792475
121.450000 -0.792475 -0.792475
121.500000 -0.792475 -0.792475
121.550000 -0.792475 -0.792475
121.600000 -0.792475 -0.792475
121.650000 -0.792475 -0.792475
121.700000 -0.792475 -0.792475
121.750000 -0.792475 -0.792475
121.800000 -0.792475 -0.792475
121.850000 -0.792475 -0.792475
121.900000 -0.792475 -0.792475
121.950000 -0.792475 -0.792475
122.000000 -0.792475 -0.792475
122.050000 -0.792475 -0.792475
122.100000 -0.792475 -0.792475
122.150000 -0.792475 -0.792475
122.200000 -0.792475 -0.792475
122.250000 -0.792475 -0.792475
122.300000 -0.792475 -0.792475
122.350000 -0.792475 -0.792475
122.400000 -0.792475 -0.792475
122.450000 -0.792475 -0.792475
122.500000 -0.792475 -0.792475
122.550000 -0.792475 -0.792475
122.600000 -0.792475 -0.792475
122.650000 -0.792475 -0.792475
122.700000 -0.792475 -0.792475
122.750000 -0.792475 -0.792475
122.800000 -0.792475 -0.792475
122.850000 -0.792475 -0.792475
122.900000 -0.792475 -0.792475
122.950000 -0.792475 -0.792475
123.000000 -0.792475 -0.792475
123.050000 -0.792475 -0.792475
123.100000 -0.792475 -0.792475
123.150000 -0.792475 -0.792475
123.200000 -0.792475 -0.792475
123.250000 -0.792475 -0.792475
123.300000 -0.792475 -0.792475
123.350000 -0.792475 -0.792475
123.400000 -0.792475 -0.792475
123.450000 -0.792475 -0.792475
123.500000 -0.792475 -0.792475
123.550000 -0.792475 -0.792475
123.600000 -0.792475 -0.792475
123.650000 -0.792475 -0.792475
123.700000 -0.792475 -0.792475
123.750000 -0.792475 -0.792475
123.800000 -0.792475 -0.792475
123.850000 -0.792475 -0.792475
123.900000 -0.792475 -0.792475
123.950000 -0.792475 -0.792475
124.000000 -0.792475 -0.792475
124.050000 -0.792475 -0.792475
124.100000 -0.792475 -0.792475
124.150000 -0.792475 -0.792475
124.200000 -0.792475 -0.792475
124.250000 -0.792475 -0.792475
124.300000 -0.792475 -0.792475
124.350000 -0.792475 -0.792475
124.400000 -0.792475 -0.792475
124.450000 -0.792475 -0.792475
124.500000 -0.792475 -0.792475
124.550000 -0.792475 -0.792475
124.600000 -0.792475 -0.792475
124.650000 -0.792475 -0.792475
124.700000 -0.792475 -0.792475
124.750000 -0.792475 -0.792475
124.800000 -0.792475 -0.792475
124.850000 -0.792475 -0.792475
124.900000 -0.792475 -0.792475
124.950000 -0.792475 -0.792475
125.000000 -0.792475 -0.792475
125.050000 -0.792475 -0.792475
125.100000 -0.792475 -0.792475
125.150000 -0.792475 -0.792475
125.200000 -0.792475 -0.792475
125.250000 -0.792475 -0.792475
125.300000 -0.792475 -0.792475
125.350000 -0.792475 -0.792475
125.400000 -0.792475 -0.792475
125.450000 -0.792475 -0.792475
125.500000 -0.792475 -0.792475
125.550000 -0.792475 -0.792475
125.600000 -0.792475 -0.792475
125.650000 -0.792475 -0.792475
125.700000 -0.792475 -0.792475
125.750000 -0.792475 -0.792475
125.800000 -0.792475 -0.792475
125.850000 -0.792475 -0.792475
125.900000 -0.792475 -0.792475
125.950000 -0.792475 -0.792475
126.000000 -0.792475 -0.792475
126.050000 -0.792475 -0.792475
126.100000 -0.792475 -0.792475
126.150000 -0.792475 -0.792475
126.200000 -0.792475 -0.792475
126.250000 -0.792475 -0.792475
126.300000 -0.792475 -0.792475
126.350000 -0.792475 -0.792475
126.400000 -0.792475 -0.792475
126.450000 -0.792475 -0.792475
126.500000 -0.792475 -0.792475
126.550000 -0.792475 -0.792475
126.600000 -0.792475 -0.792475
126.650000 -0.792475 -0.792475
126.700000 -0.792475 -0.792475
126.750000 -0.792475 -0.792475
126.800000 -0.792475 -0.792475
126.850000 -0.792475 -0.792475
126.900000 -0.792475 -0.792475
126.950000 -0.792475 -0.792475
127.000000 -0.792475 -0.792475
127.050000 -0.792475 -0.792475
127.100000 -0.792475 -0.792475
127.150000 -0.792475 -0.792475
127.200000 -0.792475 -0.792475
127.250000 -0.792475 -0.792475
127.300000 -0.792475 -0.792475
127.350000 -0.792475 -0.792475
127.400000 -0.792475 -0.792475
127.450000 -0.792475 -0.792475
127.500000 -0.792475 -0.792475
127.550000 -0.792475 -0.792475
127.600000 -0.792475 -0.792475
127.650000 -0.792475 -0.792475
127.700000 -0.792475 -0.792475
127.750000 -0.792475 -0.792475
127.800000 -0.792475 -0.792475
127.850000 -0.792475 -0.792475
127.900000 -0.792475 -0.792475
127.950000 -0.792475 -0.792475
128.000000 -0.792475 -0.792475
128.050000 -0.792475 -0.792475
128.100000 -0.792475 -0.792475
128.150000 -0.792475 -0.792475
128.200000 -0.792475 -0.792475
128.250000 -0.792475 -0.792475
128.300000 -0.792475 -0.792475
128.350000 -0.792475 -0.792475
128.400000 -0.792475 -0.792475
128.450000 -0.792475 -0.792475
128.500000 -0.792475 -0.792475
128.550000 -0.792475 -0.792475
128.600000 -0.792475 -0.792475
128.650000 -0.792475 -0.792475
128.700000 -0.792475 -0.792475
128.750000 -0.792475 -0.792475
128.800000 -0.792475 -0.792475
128.850000 -0.792475 -0.792475
128.900000 -0.792475 -0.792475
128.950000 -0.792475 -0.792475
129.000000 -0.792475 -0.792475
129.050000 -0.792475 -0.792475
129.100000 -0.792475 -0.792475
129.150000 -0.792475 -0.792475
129.200000 -0.792475 -0.792475
129.250000 -0.792475 -0.792475
129.300000 -0.792475 -0.792475
129.350000 -0.792475 -0.792475
129.400000 -0.792475 -0.792475
129.450000 -0.792475 -0.792475
129.500000 -0.792475 -0.792475
129.550000 -0.792475 -0.792475
129.600000 -0.792475 -0.792475
129.650000 -0.792475 -0.792475
129.700000 -0.792475 -0.792475
129.750000 -0.792475 -0.792475
129.800000 -0.792475 -0.792475
129.850000 -0.792475 -0.792475
129.900000 -0.792475 -0.792475
129.950000 -0.792475 -0.792475
130.000000 -0.792475 -0.792475
130.050000 -0.792475 -0.792475
130.100000 -0.792475 -0.792475
130.150000 -0.792475 -0.792475
130.200000 -0.792475 -0.792475
130.250000 -0.792475 -0.792475
130.300000 -0.792475 -0.792475
130.350000 -0.792475 -0.792475
130.400000 -0.792475 -0.792475
130.450000 -0.792475 -0.792475
130.500000 -0.792475 -0.792475
130.550000 -0.792475 -0.792475
130.600000 -0.792475 -0.792475
130.650000 -0.792475 -0.792475
130.700000 -0.792475 -0.792475
130.750000 -0.792475 -0.792475
130.800000 -0.792475 -0.792475
130.850000 -0.792475 -0.792475
130.900000 -0.792475 -0.792475
130.950000 -0.792475 -0.792475
131.000000 -0.792475 -0.792475
131.050000 -0.792475 -0.792475
131.100000 -0.792475 -0.792475
131.150000 -0.792475 -0.792475
131.200000 -0.792475 -0.792475
131.250000 -0.792475 -0.792475
131.300000 -0.792475 -0.792475
131.350000 -0.792475 -0.792475
131.400000 -0.792475 -0.792475
131.450000 -0.792475 -0.792475
131.500000 -0.792475 -0.792475
131.550000 -0.792475 -0.792475
131.600000 -0.792475 -0.792475
131.650000 -0.792475 -0.792475
131.700000 -0.792475 -0.792475
131.750000 -0.792475 -0.792475
131.800000 -0.792475 -0.792475
131.850000 -0.792475 -0.792475
131.900000 -0.792475 -0.792475
131.950000 -0.792475 -0.792475
132.000000 -0.792475 -0.792475
132.050000 -0.792475 -0.792475
132.100000 -0.792475 -0.792475
132.150000 -0.792475 -0.792475
132.200000 -0.792475 -0.792475
132.250000 -0.792475 -0.792475
132.300000 -0.792475 -0.792475
132.350000 -0.792475 -0.792475
132.400000 -0.792475 -0.792475
132.450000 -0.792475 -0.792475
132.500000 -0.792475 -0.792475
132.550000 -0.792475 -0.792475
132.600000 -0.792475 -0.792475
132.650000 -0.792475 -0.792475
132.700000 -0.792475 -0.792475
132.750000 -0.792475 -0.792475
132.800000 -0.792475 -0.792475
132.850000 -0.792475 -0.792475
132.900000 -0.792475 -0.792475
132.950000 -0.792475 -0.792475
133.000000 -0.792475 -0.792475
133.050000 -0.792475 -0.792475
133.100000 -0.792475 -0.792475
133.150000 -0.792475 -0.792475
133.200000 -0.792475 -0.792475
133.250000 -0.792475 -0.792475
133.300000 -0.792475 -0.792475
133.350000 -0.792475 -0.792475
133.400000 -0.792475 -0.792475
133.450000 -0.792475 -0.792475
133.500000 -0.792475 -0.792475
133.550000 -0.792475 -0.792475
133.600000 -0.792475 -0.792475
133.650000 -0.792475 -0.792475
133.700000 -0.792475 -0.792475
133.750000 -0.792475 -0.792475
133.800000 -0.792475 -0.792475
133.850000 -0.792475 -0.792475
133.900000 -0.792475 -0.792475
133.950000 -0.792475 -0.792475
134.000000 -0.792475 -0.792475
134.050000 -0.792475 -0.792475
134.100000 -0.792475 -0.792475
134.150000 -0.792475 -0.792475
134.200000 -0.792475 -0.792475
134.250000 -0.792475 -0.792475
134.300000 -0.792475 -0.792475
134.350000 -0.792475 -0.792475
134.400000 -0.792475 -0.792475
134.450000 -0.792475 -0.792475
134.500000 -0.792475 -0.792475
134.550000 -0.792475 -0.792475
134.600000 -0.792475 -0.792475
134.650000 -0.792475 -0.792475
134.700000 -0.792475 -0.792475
134.750000 -0.792475 -0.792475
134.800000 -0.792475 -0.792475
134.850000 -0.792475 -0.792475
134.900000 -0.792475 -0.792475
134.950000 -0.792475 -0.792475
135.000000 -0.792475 -0.792475
135.050000 -0.792475 -0.792475
135.100000 -0.792475 -0.792475
135.150000 -0.792475 -0.792475
135.200000 -0.792475 -0.792475
135.250000 -0.792475 -0.792475
135.300000 -0.792475 -0.792475
135.350000 -0.792475 -0.792475
135.400000 -0.792475 -0.792475
135.450000 -0.792475 -0.792475
135.500000 -0.792475 -0.792475
135.550000 -0.792475 -0.792475
135.600000 -0.792475 -0.792475
135.650000 -0.792475 -0.792475
135.700000 -0.792475 -0.792475
135.750000 -0.792475 -0.792475
135.800000 -0.792475 -0.792475
135.850000 -0.792475 -0.792475
135.900000 -0.792475 -0.792475
135.950000 -0.792475 -0.792475
136.000000 -0.792475 -0.792475
136.050000 -0.792475 -0.792475
136.100000 -0.792475 -0.792475
136.150000 -0.792475 -0.792475
136.200000 -0.792475 -0.792475
136.250000 -0.792475 -0.792475
136.300000 -0.792475 -0.792475
136.350000 -0.792475 -0.792475
136.400000 -0.792475 -0.792475
136.450000 -0.792475 -0.792475
136.500000 -0.792475 -0.792475
136.550000 -0.792475 -0.792475
136.600000 -0.792475 -0.792475
136.650000 -0.792475 -0.792475
136.700000 -0.792475 -0.792475
136.750000 -0.792475 -0.792475
136.800000 -0.792475 -0.792475
136.850000 -0.792475 -0.792475
136.900000 -0.792475 -0.792475
136.950000 -0.792475 -0.792475
137.000000 -0.792475 -0.792475
137.050000 -0.792475 -0.792475
137.100000 -0.792475 -0.792475
137.150000 -0.792475 -0.792475
137.200000 -0.792475 -0.792475
137.250000 -0.792475 -0.792475
137.300000 -0.792475 -0.792475
137.350000 -0.792475 -0.792475
137.400000 -0.792475 -0.792475
137.450000 -0.792475 -0.792475
137.500000 -0.792475 -0.792475
137.550000 -0.792475 -0.792475
137.600000 -0.792475 -0.792475
137.650000 -0.792475 -0.792475
137.700000 -0.792475 -0.792475
137.750000 -0.792475 -0.792475
137.800000 -0.792475 -0.792475
137.850000 -0.792475 -0.792475
137.900000 -0.792475 -0.792475
137.950000 -0.792475 -0.792475
138.000000 -0.792475 -0.792475
138.050000 -0.792475 -0.792475
138.100000 -0.792475 -0.792475
138.150000 -0.792475 -0.792475
138.200000 -0.792475 -0.792475
138.250000 -0.792475 -0.792475
138.300000 -0.792475 -0.792475
138.350000 -0.792475 -0.792475
138.400000 -0.792475 -0.792475
138.450000 -0.792475 -0.792475
138.500000 -0.792475 -0.792475
138.550000 -0.792475 -0.792475
138.600000 -0.792475 -0.792475
138.650000 -0.792475 -0.792475
138.700000 -0.792475 -0.792475
138.750000 -0.792475 -0.792475
138.800000 -0.792475 -0.792475
138.850000 -0.792475 -0.792475
138.900000 -0.792475 -0.792475
138.950000 -0.792475 -0.792475
139.000000 -0.792475 -0.792475
139.050000 -0.792475 -0.792475
139.100000 -0.792475 -0.792475
139.150000 -0.792475 -0.792475
139.200000 -0.792475 -0.792475
139.250000 -0.792475 -0.792475
139.300000 -0.792475 -0.792475
139.350000 -0.792475 -0.792475
139.400000 -0.792475 -0.792475
139.450000 -0.792475 -0.792475
139.500000 -0.792475 -0.792475
139.550000 -0.792475 -0.792475
139.600000 -0.792475 -0.792475
139.650000 -0.792475 -0.792475
139.700000 -0.792475 -0.792475
139.750000 -0.792475 -0.792475
139.800000 -0.792475 -0.792475
139.850000 -0.792475 -0.792475
139.900000 -0.792475 -0.792475
139.950000 -0.792475 -0.792475
140.000000 -0.792475 -0.792475
140.050000 -0.792475 -0.792475
140.100000 -0.792475 -0.792475
140.150000 -0.792475 -0.792475
140.200000 -0.792475 -0.792475
140.250000 -0.792475 -0.792475
140.300000 -0.792475 -0.792475
140.350000 -0.792475 -0.792475
140.400000 -0.792475 -0.792475
140.450000 -0.792475 -0.792475
140.500000 -0.792475 -0.792475
140.550000 -0.792475 -0.792475
140.600000 -0.792475 -0.792475
140.650000 -0.792475 -0.792475
140.700000 -0.792475 -0.792475
140.750000 -0.792475 -0.792475
140.800000 -0.792475 -0.792475
140.850000 -0.792475 -0.792475
140.900000 -0.792475 -0.792475
140.950000 -0.792475 -0.792475
141.000000 -0.792475 -0.792475
141.050000 -0.792475 -0.792475
141.100000 -0.792475 -0.792475
141.150000 -0.792475 -0.792475
141.200000 -0.792475 -0.792475
141.250000 -0.792475 -0.792475
141.300000 -0.792475 -0.792475
141.350000 -0.792475 -0.792475
141.400000 -0.792475 -0.792475
141.450000 -0.792475 -0.792475
141.500000 -0.792475 -0.792475
141.550000 -0.792475 -0.792475
141.600000 -0.792475 -0.792475
141.650000 -0.792475 -0.792475
141.700000 -0.792475 -0.792475
141.750000 -0.792475 -0.792475
141.800000 -0.792475 -0.792475
141.850000 -0.792475 -0.792475
141.900000 -0.792475 -0.792475
141.950000 -0.792475 -0.792475
142.000000 -0.792475 -0.792475
142.050000 -0.792475 -0.792475
142.100000 -0.792475 -0.792475
142.150000 -0.792475 -0.792475
142.200000 -0.792475 -0.792475
142.250000 -0.792475 -0.792475
142.300000 -0.792475 -0.792475
142.350000 -0.792475 -0.792475
142.400000 -0.792475 -0.792475
142.450000 -0.792475 -0.792475
142.500000 -0.792475 -0.792475
142.550000 -0.792475 -0.792475
142.600000 -0.792475 -0.792475
142.650000 -0.792475 -0.792475
142.700000 -0.792475 -0.792475
142.750000 -0.792475 -0.792475
142.800000 -0.792475 -0.792475
142.850000 -0.792475 -0.792475
142.900000 -0.792475 -0.792475
142.950000 -0.792475 -0.792475
143.000000 -0.792475 -0.792475
143.050000 -0.792475 -0.792475
143.100000 -0.792475 -0.792475
143.150000 -0.792475 -0.792475
143.200000 -0.792475 -0.792475
143.250000 -0.792475 -0.792475
143.300000 -0.792475 -0.792475
143.350000 -0.792475 -0.792475
143.400000 -0.792475 -0.792475
143.450000 -0.792475 -0.792475
143.500000 -0.792475 -0.792475
143.550000 -0.792475 -0.792475
143.600000 -0.792475 -0.792475
143.650000 -0.792475 -0.792475
143.700000 -0.792475 -0.792475
143.750000 -0.792475 -0.792475
143.800000 -0.792475 -0.792475
143.850000 -0.792475 -0.792475
143.900000 -0.792475 -0.792475
143.950000 -0.792475 -0.792475
144.000000 -0.792475 -0.792475
144.050000 -0.792475 -0.792475
144.100000 -0.792475 -0.792475
144.150000 -0.792475 -0.792475
144.200000 -0.792475 -0.792475
144.250000 -0.792475 -0.792475
144.300000 -0.792475 -0.792475
144.350000 -0.792475 -0.792475
144.400000 -0.792475 -0.792475
144.450000 -0.792475 -0.792475
144.500000 -0.792475 -0.792475
144.550000 -0.792475 -0.792475
144.600000 -0.792475 -0.792475
144.650000 -0.792475 -0.792475
144.700000 -0.792475 -0.792475
144.750000 -0.792475 -0.792475
144.800000 -0.792475 -0.792475
144.850000 -0.792475 -0.792475
144.900000 -0.792475 -0.792475
144.950000 -0.792475 -0.792475
145.000000 -0.792475 -0.792475
145.050000 -0.792475 -0.792475
145.100000 -0.792475 -0.792475
145.150000 -0.792475 -0.792475
145.200000 -0.792475 -0.792475
145.250000 -0.792475 -0.792475
145.300000 -0.792475 -0.792475
145.350000 -0.792475 -0.792475
145.400000 -0.792475 -0.792475
145.450000 -0.792475 -0.792475
145.500000 -0.792475 -0.792475
145.550000 -0.792475 -0.792475
145.600000 -0.792475 -0.792475
145.650000 -0.792475 -0.792475
145.700000 -0.792475 -0.792475
145.750000 -0.792475 -0.792475
145.800000 -0.792475 -0.792475
145.850000 -0.792475 -0.792475
145.900000 -0.792475 -0.792475
145.950000 -0.792475 -0.792475
146.000000 -0.792475 -0.792475
146.050000 -0.792475 -0.792475
146.100000 -0.792475 -0.792475
146.150000 -0.792475 -0.792475
146.200000 -0.792475 -0.792475
146.250000 -0.792475 -0.792475
146.300000 -0.792475 -0.792475
146.350000 -0.792475 -0.792475
146.400000 -0.792475 -0.792475
146.450000 -0.792475 -0.792475
146.500000 -0.792475 -0.792475
146.550000 -0.792475 -0.792475
146.600000 -0.792475 -0.792475
146.650000 -0.792475 -0.792475
146.700000 -0.792475 -0.792475
146.750000 -0.792475 -0.792475
146.800000 -0.792475 -0.792475
146.850000 -0.792475 -0.792475
146.900000 -0.792475 -0.792475
146.950000 -0.792475 -0.792475
147.000000 -0.792475 -0.792475
147.050000 -0.792475 -0.792475
147.100000 -0.792475 -0.792475
147.150000 -0.792475 -0.792475
147.200000 -0.792475 -0.792475
147.250000 -0.792475 -0.792475
147.300000 -0.792475 -0.792475
147.350000 -0.792475 -0.792475
147.400000 -0.792475 -0.792475
147.450000 -0.792475 -0.792475
147.500000 -0.792475 -0.792475
147.550000 -0.792475 -0.792475
147.600000 -0.792475 -0.792475
147.650000 -0.792475 -0.792475
147.700000 -0.792475 -0.792475
147.750000 -0.792475 -0.792475
147.800000 -0.792475 -0.792475
147.850000 -0.792475 -0.792475
147.900000 -0.792475 -0.792475
147.950000 -0.792475 -0.792475
148.000000 -0.792475 -0.792475
148.050000 -0.792475 -0.792475
148.100000 -0.792475 -0.792475
148.150000 -0.792475 -0.792475
148.200000 -0.792475 -0.792475
148.250000 -0.792475 -0.792475
148.300000 -0.792475 -0.792475
148.350000 -0.792475 -0.792475
148.400000 -0.792475 -0.792475
148.450000 -0.792475 -0.792475
148.500000 -0.792475 -0.792475
148.550000 -0.792475 -0.792475
148.600000 -0.792475 -0.792475
148.650000 -0.792475 -0.792475
148.700000 -0.792475 -0.792475
148.750000 -0.792475 -0.792475
148.800000 -0.792475 -0.792475
148.850000 -0.792475 -0.792475
148.900000 -0.792475 -0.792475
148.950000 -0.792475 -0.792475
149.000000 -0.792475 -0.792475
149.050000 -0.792475 -0.792475
149.100000 -0.792475 -0.792475
149.150000 -0.792475 -0.792475
149.200000 -0.792475 -0.792475
149.250000 -0.792475 -0.792475
149.300000 -0.792475 -0.792475
149.350000 -0.792475 -0.792475
149.400000 -0.792475 -0.792475
149.450000 -0.792475 -0.792475
149.500000 -0.792475 -0.792475
149.550000 -0.792475 -0.792475
149.600000 -0.792475 -0.792475
149.650000 -0.792475 -0.792475
149.700000 -0.792475 -0.792475
149.750000 -0.792475 -0.792475
149.800000 -0.792475 -0.792475
149.850000 -0.792475 -0.792475
149.900000 -0.792475 -0.792475
149.950000 -0.792475 -0.792475
150.000000 -0.792475 -0.792475
150.050000 -0.792475 -0.792475
150.100000 -0.792475 -0.792475
150.150000 -0.792475 -0.792475
150.200000 -0.792475 -0.792475
150.250000 -0.792475 -0.792475
150.300000 -0.792475 -0.792475
150.350000 -0.792475 -0.792475
150.400000 -0.792475 -0.792475
150.450000 -0.792475 -0.792475
150.500000 -0.792475 -0.792475
150.550000 -0.792475 -0.792475
150.600000 -0.792475 -0.792475
150.650000 -0.792475 -0.792475
150.700000 -0.792475 -0.792475
150.750000 -0.792475 -0.792475
150.800000 -0.792475 -0.792475
150.850000 -0.792475 -0.792475
150.900000 -0.792475 -0.792475
150.950000 -0.792475 -0.792475
151.000000 -0.792475 -0.792475
151.050000 -0.792475 -0.792475
151.100000 -0.792475 -0.792475
151.150000 -0.792475 -0.792475
151.200000 -0.792475 -0.792475
151.250000 -0.792475 -0.792475
151.300000 -0.792475 -0.792475
151.350000 -0.792475 -0.792475
151.400000 -0.792475 -0.792475
151.450000 -0.792475 -0.792475
151.500000 -0.792475 -0.792475
151.550000 -0.792475 -0.792475
151.600000 -0.792475 -0.792475
151.650000 -0.792475 -0.792475
151.700000 -0.792475 -0.792475
151.750000 -0.792475 -0.792475
151.800000 -0.792475 -0.792475
151.850000 -0.792475 -0.792475
151.900000 -0.792475 -0.792475
151.950000 -0.792475 -0.792475
152.000000 -0.792475 -0.792475
152.050000 -0.792475 -0.792475
152.100000 -0.792475 -0.792475
152.150000 -0.792475 -0.792475
152.200000 -0.792475 -0.792475
152.250000 -0.792475 -0.792475
152.300000 -0.792475 -0.792475
152.350000 -0.792475 -0.792475
152.400000 -0.792475 -0.792475
152.450000 -0.792475 -0.792475
152.500000 -0.792475 -0.792475
152.550000 -0.792475 -0.792475
152.600000 -0.792475 -0.792475
152.650000 -0.792475 -0.792475
152.700000 -0.792475 -0.792475
152.750000 -0.792475 -0.792475
152.800000 -0.792475 -0.792475
152.850000 -0.792475 -0.792475
152.900000 -0.792475 -0.792475
152.950000 -0.792475 -0.792475
153.000000 -0.792475 -0.792475
153.050000 -0.792475 -0.792475
153.100000 -0.792475 -0.792475
153.150000 -0.792475 -0.792475
153.200000 -0.792475 -0.792475
153.250000 -0.792475 -0.792475
153.300000 -0.792475 -0.792475
153.350000 -0.792475 -0.792475
153.400000 -0.792475 -0.792475
153.450000 -0.792475 -0.792475
153.500000 -0.792475 -0.792475
153.550000 -0.792475 -0.792475
153.600000 -0.792475 -0.792475
153.650000 -0.792475 -0.792475
153.700000 -0.792475 -0.792475
153.750000 -0.792475 -0.792475
153.800000 -0.792475 -0.792475
153.850000 -0.792475 -0.792475
153.900000 -0.792475 -0.792475
153.950000 -0.792475 -0.792475
154.000000 -0.792475 -0.792475
154.050000 -0.792475 -0.792475
154.100000 -0.792475 -0.792475
154.150000 -0.792475 -0.792475
154.200000 -0.792475 -0.792475
154.250000 -0.792475 -0.792475
154.300000 -0.792475 -0.792475
154.350000 -0.792475 -0.792475
154.400000 -0.792475 -0.792475
154.450000 -0.792475 -0.792475
154.500000 -0.792475 -0.792475
154.550000 -0.792475 -0.792475
154.600000 -0.792475 -0.792475
154.650000 -0.792475 -0.792475
154.700000 -0.792475 -0.792475
154.750000 -0.792475 -0.792475
154.800000 -0.792475 -0.792475
154.850000 -0.792475 -0.792475
154.900000 -0.792475 -0.792475
154.950000 -0.792475 -0.792475
155.000000 -0.792475 -0.792475
155.050000 -0.792475 -0.792475
155.100000 -0.792475 -0.792475
155.150000 -0.792475 -0.792475
155.200000 -0.792475 -0.792475
155.250000 -0.792475 -0.792475
155.300000 -0.792475 -0.792475
155.350000 -0.792475 -0.792475
155.400000 -0.792475 -0.792475
155.450000 -0.792475 -0.792475
155.500000 -0.792475 -0.792475
155.550000 -0.792475 -0.792475
155.600000 -0.792475 -0.792475
155.650000 -0.792475 -0.792475
155.700000 -0.792475 -0.792475
155.750000 -0.792475 -0.792475
155.800000 -0.792475 -0.792475
155.850000 -0.792475 -0.792475
155.900000 -0.792475 -0.792475
155.950000 -0.792475 -0.792475
156.000000 -0.792475 -0.792475
156.050000 -0.792475 -0.792475
156.100000 -0.792475 -0.792475
156.150000 -0.792475 -0.792475
156.200000 -0.792475 -0.792475
156.250000 -0.792475 -0.792475
156.300000 -0.792475 -0.792475
156.350000 -0.792475 -0.792475
156.400000 -0.792475 -0.792475
156.450000 -0.792475 -0.792475
156.500000 -0.792475 -0.792475
156.550000 -0.792475 -0.792475
156.600000 -0.792475 -0.792475
156.650000 -0.792475 -0.792475
156.700000 -0.792475 -0.792475
156.750000 -0.792475 -0.792475
156.800000 -0.792475 -0.792475
156.850000 -0.792475 -0.792475
156.900000 -0.792475 -0.792475
156.950000 -0.792475 -0.792475
157.000000 -0.792475 -0.792475
157.050000 -0.792475 -0.792475
157.100000 -0.792475 -0.792475
157.150000 -0.792475 -0.792475
157.200000 -0.792475 -0.792475
157.250000 -0.792475 -0.792475
157.300000 -0.792475 -0.792475
157.350000 -0.792475 -0.792475
157.400000 -0.792475 -0.792475
157.450000 -0.792475 -0.792475
157.500000 -0.792475 -0.792475
157.550000 -0.792475 -0.792475
157.600000 -0.792475 -0.792475
157.650000 -0.792475 -0.792475
157.700000 -0.792475 -0.792475
157.750000 -0.792475 -0.792475
157.800000 -0.792475 -0.792475
157.850000 -0.792475 -0.792475
157.900000 -0.792475 -0.792475
157.950000 -0.792475 -0.792475
158.000000 -0.792475 -0.792475
158.050000 -0.792475 -0.792475
158.100000 -0.792475 -0.792475
158.150000 -0.792475 -0.792475
158.200000 -0.792475 -0.792475
158.250000 -0.792475 -0.792475
158.300000 -0.792475 -0.792475
158.350000 -0.792475 -0.792475
158.400000 -0.792475 -0.792475
158.450000 -0.792475 -0.792475
158.500000 -0.792475 -0.792475
158.550000 -0.792475 -0.792475
158.600000 -0.792475 -0.792475
158.650000 -0.792475 -0.792475
158.700000 -0.792475 -0.792475
158.750000 -0.792475 -0.792475
158.800000 -0.792475 -0.792475
158.850000 -0.792475 -0.792475
158.900000 -0.792475 -0.792475
158.950000 -0.792475 -0.792475
159.000000 -0.792475 -0.792475
159.050000 -0.792475 -0.792475
159.100000 -0.792475 -0.792475
159.150000 -0.792475 -0.792475
159.200000 -0.792475 -0.792475
159.250000 -0.792475 -0.792475
159.300000 -0.792475 -0.792475
159.350000 -0.792475 -0.792475
159.400000 -0.792475 -0.792475
159.450000 -0.792475 -0.792475
159.500000 -0.792475 -0.792475
159.550000 -0.792475 -0.792475
159.600000 -0.792475 -0.792475
159.650000 -0.792475 -0.792475
159.700000 -0.792475 -0.792475
159.750000 -0.792475 -0.792475
159.800000 -0.792475 -0.792475
159.850000 -0.792475 -0.792475
159.900000 -0.792475 -0.792475
159.950000 -0.792475 -0.792475
160.000000 -0.792475 -0.792475
160.050000 -0.792475 -0.792475
160.100000 -0.792475 -0.792475
160.150000 -0.792475 -0.792475
160.200000 -0.792475 -0.792475
160.250000 -0.792475 -0.792475
160.300000 -0.792475 -0.792475
160.350000 -0.792475 -0.792475
160.400000 -0.792475 -0.792475
160.450000 -0.792475 -0.792475
160.500000 -0.792475 -0.792475
160.550000 -0.792475 -0.792475
160.600000 -0.792475 -0.792475
160.650000 -0.792475 -0.792475
160.700000 -0.792475 -0.792475
160.750000 -0.792475 -0.792475
160.800000 -0.792475 -0.792475
160.850000 -0.792475 -0.792475
160.900000 -0.792475 -0.792475
160.950000 -0.792475 -0.792475
161.000000 -0.792475 -0.792475
161.050000 -0.792475 -0.792475
161.100000 -0.792475 -0.792475
161.150000 -0.792475 -0.792475
161.200000 -0.792475 -0.792475
161.250000 -0.792475 -0.792475
161.300000 -0.792475 -0.792475
161.350000 -0.792475 -0.792475
161.400000 -0.792475 -0.792475
161.450000 -0.792475 -0.792475
161.500000 -0.792475 -0.792475
161.550000 -0.792475 -0.792475
161.600000 -0.792475 -0.792475
161.650000 -0.792475 -0.792475
161.700000 -0.792475 -0.792475
161.750000 -0.792475 -0.792475
161.800000 -0.792475 -0.792475
161.850000 -0.792475 -0.792475
161.900000 -0.792475 -0.792475
161.950000 -0.792475 -0.792475
162.000000 -0.792475 -0.792475
162.050000 -0.792475 -0.792475
162.100000 -0.792475 -0.792475
162.150000 -0.792475 -0.792475
162.200000 -0.792475 -0.792475
162.250000 -0.792475 -0.792475
162.300000 -0.792475 -0.792475
162.350000 -0.792475 -0.792475
162.400000 -0.792475 -0.792475
162.450000 -0.792475 -0.792475
162.500000 -0.792475 -0.792475
162.550000 -0.792475 -0.792475
162.600000 -0.792475 -0.792475
162.650000 -0.792475 -0.792475
162.700000 -0.792475 -0.792475
162.750000 -0.792475 -0.792475
162.800000 -0.792475 -0.792475
162.850000 -0.792475 -0.792475
162.900000 -0.792475 -0.792475
162.950000 -0.792475 -0.792475
163.000000 -0.792475 -0.792475
163.050000 -0.792475 -0.792475
163.100000 -0.792475 -0.792475
163.150000 -0.792475 -0.792475
163.200000 -0.792475 -0.792475
163.250000 -0.792475 -0.792475
163.300000 -0.792475 -0.792475
163.350000 -0.792475 -0.792475
163.400000 -0.792475 -0.792475
163.450000 -0.792475 -0.792475
163.500000 -0.792475 -0.792475
163.550000 -0.792475 -0.792475
163.600000 -0.792475 -0.792475
163.650000 -0.792475 -0.792475
163.700000 -0.792475 -0.792475
163.750000 -0.792475 -0.792475
163.800000 -0.792475 -0.792475
163.850000 -0.792475 -0.792475
163.900000 -0.792475 -0.792475
163.950000 -0.792475 -0.792475
164.000000 -0.792475 -0.792475
164.050000 -0.792475 -0.792475
164.100000 -0.792475 -0.792475
164.150000 -0.792475 -0.792475
164.200000 -0.792475 -0.792475
164.250000 -0.792475 -0.792475
164.300000 -0.792475 -0.792475
164.350000 -0.792475 -0.792475
164.400000 -0.792475 -0.792475
164.450000 -0.792475 -0.792475
164.500000 -0.792475 -0.792475
164.550000 -0.792475 -0.792475
164.600000 -0.792475 -0.792475
164.650000 -0.792475 -0.792475
164.700000 -0.792475 -0.792475
164.750000 -0.792475 -0.792475
164.800000 -0.792475 -0.792475
164.850000 -0.792475 -0.792475
164.900000 -0.792475 -0.792475
164.950000 -0.792475 -0.792475
165.000000 -0.792475 -0.792475
165.050000 -0.792475 -0.792475
165.100000 -0.792475 -0.792475
165.150000 -0.792475 -0.792475
165.200000 -0.792475 -0.792475
165.250000 -0.792475 -0.792475
165.300000 -0.792475 -0.792475
165.350000 -0.792475 -0.792475
165.400000 -0.792475 -0.792475
165.450000 -0.792475 -0.792475
165.500000 -0.792475 -0.792475
165.550000 -0.792475 -0.792475
165.600000 -0.792475 -0.792475
165.650000 -0.792475 -0.792475
165.700000 -0.792475 -0.792475
165.750000 -0.792475 -0.792475
165.800000 -0.792475 -0.792475
165.850000 -0.792475 -0.792475
165.900000 -0.792475 -0.792475
165.950000 -0.792475 -0.792475
166.000000 -0.792475 -0.792475
166.050000 -0.792475 -0.792475
166.100000 -0.792475 -0.792475
166.150000 -0.792475 -0.792475
166.200000 -0.792475 -0.792475
166.250000 -0.792475 -0.792475
166.300000 -0.792475 -0.792475
166.350000 -0.792475 -0.792475
166.400000 -0.792475 -0.792475
166.450000 -0.792475 -0.792475
166.500000 -0.792475 -0.792475
166.550000 -0.792475 -0.792475
166.600000 -0.792475 -0.792475
166.650000 -0.792475 -0.792475
166.700000 -0.792475 -0.792475
166.750000 -0.792475 -0.792475
166.800000 -0.792475 -0.792475
166.850000 -0.792475 -0.792475
166.900000 -0.792475 -0.792475
166.950000 -0.792475 -0.792475
167.000000 -0.792475 -0.792475
167.050000 -0.792475 -0.792475
167.100000 -0.792475 -0.792475
167.150000 -0.792475 -0.792475
167.200000 -0.792475 -0.792475
167.250000 -0.792475 -0.792475
167.300000 -0.792475 -0.792475
167.350000 -0.792475 -0.792475
167.400000 -0.792475 -0.792475
167.450000 -0.792475 -0.792475
167.500000 -0.792475 -0.792475
167.550000 -0.792475 -0.792475
167.600000 -0.792475 -0.792475
167.650000 -0.792475 -0.792475
167.700000 -0.792475 -0.792475
167.750000 -0.792475 -0.792475
167.800000 -0.792475 -0.792475
167.850000 -0.792475 -0.792475
167.900000 -0.792475 -0.792475
167.950000 -0.792475 -0.792475
168.000000 -0.792475 -0.792475
168.050000 -0.792475 -0.792475
168.100000 -0.792475 -0.792475
168.150000 -0.792475 -0.792475
168.200000 -0.792475 -0.792475
168.250000 -0.792475 -0.792475
168.300000 -0.792475 -0.792475
168.350000 -0.792475 -0.792475
168.400000 -0.792475 -0.792475
168.450000 -0.792475 -0.792475
168.500000 -0.792475 -0.792475
168.550000 -0.792475 -0.792475
168.600000 -0.792475 -0.792475
168.650000 -0.792475 -0.792475
168.700000 -0.792475 -0.792475
168.750000 -0.792475 -0.792475
168.800000 -0.792475 -0.792475
168.850000 -0.792475 -0.792475
168.900000 -0.792475 -0.792475
168.950000 -0.792475 -0.792475
169.000000 -0.792475 -0.792475
169.050000 -0.792475 -0.792475
169.100000 -0.792475 -0.792475
169.150000 -0.792475 -0.792475
169.200000 -0.792475 -0.792475
169.250000 -0.792475 -0.792475
169.300000 -0.792475 -0.792475
169.350000 -0.792475 -0.792475
169.400000 -0.792475 -0.792475
169.450000 -0.792475 -0.792475
169.500000 -0.792475 -0.792475
169.550000 -0.792475 -0.792475
169.600000 -0.792475 -0.792475
169.650000 -0.792475 -0.792475
169.700000 -0.792475 -0.792475
169.750000 -0.792475 -0.792475
169.800000 -0.792475 -0.792475
169.850000 -0.792475 -0.792475
169.900000 -0.792475 -0.792475
169.950000 -0.792475 -0.792475
170.000000 -0.792475 -0.792475
170.050000 -0.792475 -0.792475
170.100000 -0.792475 -0.792475
170.150000 -0.792475 -0.792475
170.200000 -0.792475 -0.792475
170.250000 -0.792475 -0.792475
170.300000 -0.792475 -0.792475
170.350000 -0.792475 -0.792475
170.400000 -0.792475 -0.792475
170.450000 -0.792475 -0.792475
170.500000 -0.792475 -0.792475
170.550000 -0.792475 -0.792475
170.600000 -0.792475 -0.792475
170.650000 -0.792475 -0.792475
170.700000 -0.792475 -0.792475
170.750000 -0.792475 -0.792475
170.800000 -0.792475 -0.792475
170.850000 -0.792475 -0.792475
170.900000 -0.792475 -0.792475
170.950000 -0.792475 -0.792475
171.000000 -0.792475 -0.792475
171.050000 -0.792475 -0.792475
171.100000 -0.792475 -0.792475
171.150000 -0.792475 -0.792475
171.200000 -0.792475 -0.792475
171.250000 -0.792475 -0.792475
171.300000 -0.792475 -0.792475
171.350000 -0.792475 -0.792475
171.400000 -0.792475 -0.792475
171.450000 -0.792475 -0.792475
171.500000 -0.792475 -0.792475
171.550000 -0.792475 -0.792475
171.600000 -0.792475 -0.792475
171.650000 -0.792475 -0.792475
171.700000 -0.792475 -0.792475
171.750000 -0.792475 -0.792475
171.800000 -0.792475 -0.792475
171.850000 -0.792475 -0.792475
171.900000 -0.792475 -0.792475
171.950000 -0.792475 -0.792475
172.000000 -0.792475 -0.792475
172.050000 -0.792475 -0.792475
172.100000 -0.792475 -0.792475
172.150000 -0.792475 -0.792475
172.200000 -0.792475 -0.792475
172.250000 -0.792475 -0.792475
172.300000 -0.792475 -0.792475
172.350000 -0.792475 -0.792475
172.400000 -0.792475 -0.792475
172.450000 -0.792475 -0.792475
172.500000 -0.792475 -0.792475
172.550000 -0.792475 -0.792475
172.600000 -0.792475 -0.792475
172.650000 -0.792475 -0.792475
172.700000 -0.792475 -0.792475
172.750000 -0.792475 -0.792475
172.800000 -0.792475 -0.792475
172.850000 -0.792475 -0.792475
172.900000 -0.792475 -0.792475
172.950000 -0.792475 -0.792475
173.000000 -0.792475 -0.792475
173.050000 -0.792475 -0.792475
173.100000 -0.792475 -0.792475
173.150000 -0.792475 -0.792475
173.200000 -0.792475 -0.792475
173.250000 -0.792475 -0.792475
173.300000 -0.792475 -0.792475
173.350000 -0.792475 -0.792475
173.400000 -0.792475 -0.792475
173.450000 -0.792475 -0.792475
173.500000 -0.792475 -0.792475
173.550000 -0.792475 -0.792475
173.600000 -0.792475 -0.792475
173.650000 -0.792475 -0.792475
173.700000 -0.792475 -0.792475
173.750000 -0.792475 -0.792475
173.800000 -0.792475 -0.792475
173.850000 -0.792475 -0.792475
173.900000 -0.792475 -0.792475
173.950000 -0.792475 -0.792475
174.000000 -0.792475 -0.792475
174.050000 -0.792475 -0.792475
174.100000 -0.792475 -0.792475
174.150000 -0.792475 -0.792475
174.200000 -0.792475 -0.792475
174.250000 -0.792475 -0.792475
174.300000 -0.792475 -0.792475
174.350000 -0.792475 -0.792475
174.400000 -0.792475 -0.792475
174.450000 -0.792475 -0.792475
174.500000 -0.792475 -0.792475
174.550000 -0.792475 -0.792475
174.600000 -0.792475 -0.792475
174.650000 -0.792475 -0.792475
174.700000 -0.792475 -0.792475
174.750000 -0.792475 -0.792475
174.800000 -0.792475 -0.792475
174.850000 -0.792475 -0.792475
174.900000 -0.792475 -0.792475
174.950000 -0.792475 -0.792475
175.000000 -0.792475 -0.792475
175.050000 -0.792475 -0.792475
175.100000 -0.792475 -0.792475
175.150000 -0.792475 -0.792475
175.200000 -0.792475 -0.792475
175.250000 -0.792475 -0.792475
175.300000 -0.792475 -0.792475
175.350000 -0.792475 -0.792475
175.400000 -0.792475 -0.792475
175.450000 -0.792475 -0.792475
175.500000 -0.792475 -0.792475
175.550000 -0.792475 -0.792475
175.600000 -0.792475 -0.792475
175.650000 -0.792475 -0.792475
175.700000 -0.792475 -0.792475
175.750000 -0.792475 -0.792475
175.800000 -0.792475 -0.792475
175.850000 -0.792475 -0.792475
175.900000 -0.792475 -0.792475
175.950000 -0.792475 -0.792475
176.000000 -0.792475 -0.792475
176.050000 -0.792475 -0.792475
176.100000 -0.792475 -0.792475
176.150000 -0.792475 -0.792475
176.200000 -0.792475 -0.792475
176.250000 -0.792475 -0.792475
176.300000 -0.792475 -0.792475
176.350000 -0.792475 -0.792475
176.400000 -0.792475 -0.792475
176.450000 -0.792475 -0.792475
176.500000 -0.792475 -0.792475
176.550000 -0.792475 -0.792475
176.600000 -0.792475 -0.792475
176.650000 -0.792475 -0.792475
176.700000 -0.792475 -0.792475
176.750000 -0.792475 -0.792475
176.800000 -0.792475 -0.792475
176.850000 -0.792475 -0.792475
176.900000 -0.792475 -0.792475
176.950000 -0.792475 -0.792475
177.000000 -0.792475 -0.792475
177.050000 -0.792475 -0.792475
177.100000 -0.792475 -0.792475
177.150000 -0.792475 -0.792475
177.200000 -0.792475 -0.792475
177.250000 -0.792475 -0.792475
177.300000 -0.792475 -0.792475
177.350000 -0.792475 -0.792475
177.400000 -0.792475 -0.792475
177.450000 -0.792475 -0.792475
177.500000 -0.792475 -0.792475
177.550000 -0.792475 -0.792475
177.600000 -0.792475 -0.792475
177.650000 -0.792475 -0.792475
177.700000 -0.792475 -0.792475
177.750000 -0.792475 -0.792475
177.800000 -0.792475 -0.792475
177.850000 -0.792475 -0.792475
177.900000 -0.792475 -0.792475
177.950000 -0.792475 -0.792475
178.000000 -0.792475 -0.792475
178.050000 -0.792475 -0.792475
178.100000 -0.792475 -0.792475
178.150000 -0.792475 -0.792475
178.200000 -0.792475 -0.792475
178.250000 -0.792475 -0.792475
178.300000 -0.792475 -0.792475
178.350000 -0.792475 -0.792475
178.400000 -0.792475 -0.792475
178.450000 -0.792475 -0.792475
178.500000 -0.792475 -0.792475
178.550000 -0.792475 -0.792475
178.600000 -0.792475 -0.792475
178.650000 -0.792475 -0.792475
178.700000 -0.792475 -0.792475
178.750000 -0.792475 -0.792475
178.800000 -0.792475 -0.792475
178.850000 -0.792475 -0.792475
178.900000 -0.792475 -0.792475
178.950000 -0.792475 -0.792475
179.000000 -0.792475 -0.792475
179.050000 -0.792475 -0.792475
179.100000 -0.792475 -0.792475
179.150000 -0.792475 -0.792475
179.200000 -0.792475 -0.792475
179.250000 -0.792475 -0.792475
179.300000 -0.792475 -0.792475
179.350000 -0.792475 -0.792475
179.400000 -0.792475 -0.792475
179.450000 -0.792475 -0.792475
179.500000 -0.792475 -0.792475
179.550000 -0.792475 -0.792475
179.600000 -0.792475 -0.792475
179.650000 -0.792475 -0.792475
179.700000 -0.792475 -0.792475
179.750000 -0.792475 -0.792475
179.800000 -0.792475 -0.792475
179.850000 -0.792475 -0.792475
179.900000 -0.792475 -0.792475
179.950000 -0.792475 -0.792475
180.000000 -0.792475 -0.792475
180.050000 -0.792475 -0.792475
180.100000 -0.792475 -0.792475
180.150000 -0.792475 -0.792475
180.200000 -0.792475 -0.792475
180.250000 -0.792475 -0.792475
180.300000 -0.792475 -0.792475
180.350000 -0.792475 -0.792475
180.400000 -0.792475 -0.792475
180.450000 -0.792475 -0.792475
180.500000 -0.792475 -0.792475
180.550000 -0.792475 -0.792475
180.600000 -0.792475 -0.792475
180.650000 -0.792475 -0.792475
180.700000 -0.792475 -0.792475
180.750000 -0.792475 -0.792475
180.800000 -0.792475 -0.792475
180.850000 -0.792475 -0.792475
180.900000 -0.792475 -0.792475
180.950000 -0.792475 -0.792475
181.000000 -0.792475 -0.792475
181.050000 -0.792475 -0.792475
181.100000 -0.792475 -0.792475
181.150000 -0.792475 -0.792475
181.200000 -0.792475 -0.792475
181.250000 -0.792475 -0.792475
181.300000 -0.792475 -0.792475
181.350000 -0.792475 -0.792475
181.400000 -0.792475 -0.792475
181.450000 -0.792475 -0.792475
181.500000 -0.792475 -0.792475
181.550000 -0.792475 -0.792475
181.600000 -0.792475 -0.792475
181.650000 -0.792475 -0.792475
181.700000 -0.792475 -0.792475
181.750000 -0.792475 -0.792475
181.800000 -0.792475 -0.792475
181.850000 -0.792475 -0.792475
181.900000 -0.792475 -0.792475
181.950000 -0.792475 -0.792475
182.000000 -0.792475 -0.792475
182.050000 -0.792475 -0.792475
182.100000 -0.792475 -0.792475
182.150000 -0.792475 -0.792475
182.200000 -0.792475 -0.792475
182.250000 -0.792475 -0.792475
182.300000 -0.792475 -0.792475
182.350000 -0.792475 -0.792475
182.400000 -0.792475 -0.792475
182.450000 -0.792475 -0.792475
182.500000 -0.792475 -0.792475
182.550000 -0.792475 -0.792475
182.600000 -0.792475 -0.792475
182.650000 -0.792475 -0.792475
182.700000 -0.792475 -0.792475
182.750000 -0.792475 -0.792475
182.800000 -0.792475 -0.792475
182.850000 -0.792475 -0.792475
182.900000 -0.792475 -0.792475
182.950000 -0.792475 -0.792475
183.000000 -0.792475 -0.792475
183.050000 -0.792475 -0.792475
183.100000 -0.792475 -0.792475
183.150000 -0.792475 -0.792475
183.200000 -0.792475 -0.792475
183.250000 -0.792475 -0.792475
183.300000 -0.792475 -0.792475
183.350000 -0.792475 -0.792475
183.400000 -0.792475 -0.792475
183.450000 -0.792475 -0.792475
183.500000 -0.792475 -0.792475
183.550000 -0.792475 -0.792475
183.600000 -0.792475 -0.792475
183.650000 -0.792475 -0.792475
183.700000 -0.792475 -0.792475
183.750000 -0.792475 -0.792475
183.800000 -0.792475 -0.792475
183.850000 -0.792475 -0.792475
183.900000 -0.792475 -0.792475
183.950000 -0.792475 -0.792475
184.000000 -0.792475 -0.792475
184.050000 -0.792475 -0.792475
184.100000 -0.792475 -0.792475
184.150000 -0.792475 -0.792475
184.200000 -0.792475 -0.792475
184.250000 -0.792475 -0.792475
184.300000 -0.792475 -0.792475
184.350000 -0.792475 -0.792475
184.400000 -0.792475 -0.792475
184.450000 -0.792475 -0.792475
184.500000 -0.792475 -0.792475
184.550000 -0.792475 -0.792475
184.600000 -0.792475 -0.792475
184.650000 -0.792475 -0.792475
184.700000 -0.792475 -0.792475
184.750000 -0.792475 -0.792475
184.800000 -0.792475 -0.792475
184.850000 -0.792475 -0.792475
184.900000 -0.792475 -0.792475
184.950000 -0.792475 -0.792475
185.000000 -0.792475 -0.792475
185.050000 -0.792475 -0.792475
185.100000 -0.792475 -0.792475
185.150000 -0.792475 -0.792475
185.200000 -0.792475 -0.792475
185.250000 -0.792475 -0.792475
185.300000 -0.792475 -0.792475
185.350000 -0.792475 -0.792475
185.400000 -0.792475 -0.792475
185.450000 -0.792475 -0.792475
185.500000 -0.792475 -0.792475
185.550000 -0.792475 -0.792475
185.600000 -0.792475 -0.792475
185.650000 -0.792475 -0.792475
185.700000 -0.792475 -0.792475
185.750000 -0.792475 -0.792475
185.800000 -0.792475 -0.792475
185.850000 -0.792475 -0.792475
185.900000 -0.792475 -0.792475
185.950000 -0.792475 -0.792475
186.000000 -0.792475 -0.792475
186.050000 -0.792475 -0.792475
186.100000 -0.792475 -0.792475
186.150000 -0.792475 -0.792475
186.200000 -0.792475 -0.792475
186.250000 -0.792475 -0.792475
186.300000 -0.792475 -0.792475
186.350000 -0.792475 -0.792475
186.400000 -0.792475 -0.792475
186.450000 -0.792475 -0.792475
186.500000 -0.792475 -0.792475
186.550000 -0.792475 -0.792475
186.600000 -0.792475 -0.792475
186.650000 -0.792475 -0.792475
186.700000 -0.792475 -0.792475
186.750000 -0.792475 -0.792475
186.800000 -0.792475 -0.792475
186.850000 -0.792475 -0.792475
186.900000 -0.792475 -0.792475
186.950000 -0.792475 -0.792475
187.000000 -0.792475 -0.792475
