fit_time[ns] Functional_fit[mV] Thermal_fit[mV]
3.700000 42.632988 37.812747
3.750000 42.916585 37.147866
3.800000 43.046122 36.494582
3.850000 43.004528 35.852678
3.900000 42.779728 35.221942
3.950000 42.364848 34.602167
4.000000 41.758287 33.993149
4.050000 40.963652 33.394688
4.100000 39.989561 32.806589
4.150000 38.849322 32.228661
4.200000 37.560499 31.660716
4.250000 36.144373 31.102571
4.300000 34.625329 30.554045
4.350000 33.030159 30.014962
4.400000 31.387336 29.485150
4.450000 29.726241 28.964439
4.500000 28.076396 28.452663
4.550000 26.466699 27.949659
4.600000 24.924692 27.455267
4.650000 23.475883 26.969332
4.700000 22.143121 26.491700
4.750000 20.946067 26.022221
4.800000 19.900743 25.560747
4.850000 19.019187 25.107135
4.900000 18.309222 24.661242
4.950000 17.774332 24.222930
5.000000 17.413647 23.792063
5.050000 17.222053 23.368507
5.100000 17.190394 22.952131
5.150000 17.305783 22.542807
5.200000 17.552000 22.140409
5.250000 17.909965 21.744813
5.300000 18.358280 21.355899
5.350000 18.873815 20.973548
5.400000 19.432333 20.597642
5.450000 20.009124 20.228069
5.500000 20.579645 19.864716
5.550000 21.120142 19.507472
5.600000 21.608240 19.156230
5.650000 22.023484 18.810884
5.700000 22.347823 18.471330
5.750000 22.566027 18.137467
5.800000 22.666013 17.809194
5.850000 22.639098 17.486413
5.900000 22.480150 17.169028
5.950000 22.187650 16.856944
6.000000 21.763657 16.550070
6.050000 21.213689 16.248313
6.100000 20.546510 15.951585
6.150000 19.773843 15.659797
6.200000 18.910011 15.372865
6.250000 17.971517 15.090703
6.300000 16.976583 14.813229
6.350000 15.944643 14.540362
6.400000 14.895825 14.272021
6.450000 13.850421 14.008128
6.500000 12.828359 13.748606
6.550000 11.848702 13.493381
6.600000 10.929175 13.242377
6.650000 10.085731 12.995522
6.700000 9.332184 12.752745
6.750000 8.679883 12.513975
6.800000 8.137477 12.279144
6.850000 7.710740 12.048184
6.900000 7.402475 11.821029
6.950000 7.212499 11.597613
7.000000 7.137703 11.377872
7.050000 7.172187 11.161744
7.100000 7.307460 10.949167
7.150000 7.532707 10.740080
7.200000 7.835108 10.534425
7.250000 8.200203 10.332141
7.300000 8.612289 10.133173
7.350000 9.054850 9.937463
7.400000 9.510986 9.744957
7.450000 9.963856 9.555599
7.500000 10.397105 9.369337
7.550000 10.795273 9.186118
7.600000 11.144167 9.005891
7.650000 11.431205 8.828605
7.700000 11.645701 8.654210
7.750000 11.779102 8.482658
7.800000 11.825166 8.313900
7.850000 11.780075 8.147890
7.900000 11.642485 7.984581
7.950000 11.413513 7.823927
8.000000 11.096657 7.665885
8.050000 10.697667 7.510410
8.100000 10.224345 7.357459
8.150000 9.686311 7.206990
8.200000 9.094719 7.058961
8.250000 8.461942 6.913332
8.300000 7.801232 6.770062
8.350000 7.126362 6.629111
8.400000 6.451260 6.490442
8.450000 5.789657 6.354015
8.500000 5.154731 6.219794
8.550000 4.558781 6.087742
8.600000 4.012932 5.957822
8.650000 3.526869 5.830000
8.700000 3.108615 5.704239
8.750000 2.764360 5.580507
8.800000 2.498333 5.458768
8.850000 2.312736 5.338991
8.900000 2.207718 5.221143
8.950000 2.181417 5.105191
9.000000 2.230039 4.991104
9.050000 2.347997 4.878852
9.100000 2.528082 4.768404
9.150000 2.761682 4.659730
9.200000 3.039025 4.552800
9.250000 3.349452 4.447587
9.300000 3.681706 4.344062
9.350000 4.024229 4.242196
9.400000 4.365465 4.141963
9.450000 4.694153 4.043336
9.500000 4.999609 3.946288
9.550000 5.271987 3.850793
9.600000 5.502516 3.756826
9.650000 5.683701 3.664362
9.700000 5.809492 3.573375
9.750000 5.875406 3.483843
9.800000 5.878618 3.395740
9.850000 5.817994 3.309043
9.900000 5.694092 3.223730
9.950000 5.509111 3.139778
10.000000 5.266807 3.057165
10.050000 4.972363 2.975868
10.100000 4.632230 2.895866
10.150000 4.253938 2.817138
10.200000 3.845880 2.739663
10.250000 3.417083 2.663421
10.300000 2.976963 2.588391
10.350000 2.535078 2.514555
10.400000 2.100875 2.441892
10.450000 1.683459 2.370383
10.500000 1.291357 2.300010
10.550000 0.932317 2.230753
10.600000 0.613120 2.162596
10.650000 0.339429 2.095520
10.700000 0.115661 2.029508
10.750000 -0.055101 1.964541
10.800000 -0.171162 1.900604
10.850000 -0.232230 1.837680
10.900000 -0.239403 1.775752
10.950000 -0.195106 1.714804
11.000000 -0.103013 1.654821
11.050000 0.032076 1.595785
11.100000 0.204378 1.537684
11.150000 0.407292 1.480500
11.200000 0.633584 1.424220
11.250000 0.875584 1.368829
11.300000 1.125388 1.314312
11.350000 1.375067 1.260655
11.400000 1.616869 1.207845
11.450000 1.843412 1.155868
11.500000 2.047868 1.104710
11.550000 2.224124 1.054359
11.600000 2.366926 1.004801
11.650000 2.471998 0.956023
11.700000 2.536128 0.908013
11.750000 2.557232 0.860759
11.800000 2.534388 0.814248
11.850000 2.467833 0.768469
11.900000 2.358936 0.723410
11.950000 2.210140 0.679059
12.000000 2.024882 0.635405
12.050000 1.807482 0.592436
12.100000 1.563017 0.550143
12.150000 1.297177 0.508513
12.200000 1.016107 0.467537
12.250000 0.726240 0.427203
12.300000 0.434128 0.387502
12.350000 0.146270 0.348424
12.400000 -0.131050 0.309958
12.450000 -0.391924 0.272095
12.500000 -0.630960 0.234825
12.550000 -0.843415 0.198138
12.600000 -1.025300 0.162026
12.650000 -1.173469 0.126479
12.700000 -1.285684 0.091489
12.750000 -1.360656 0.057045
12.800000 -1.398059 0.023140
12.850000 -1.398519 -0.010234
12.900000 -1.363583 -0.043088
12.950000 -1.295660 -0.075428
13.000000 -1.197941 -0.107262
13.050000 -1.074309 -0.138600
13.100000 -0.929221 -0.169449
13.150000 -0.767583 -0.199816
13.200000 -0.594622 -0.229709
13.250000 -0.415739 -0.259136
13.300000 -0.236374 -0.288105
13.350000 -0.061863 -0.316621
13.400000 0.102697 -0.344694
13.450000 0.252571 -0.372329
13.500000 0.383501 -0.399533
13.550000 0.491807 -0.426314
13.600000 0.574469 -0.452678
13.650000 0.629188 -0.478632
13.700000 0.654438 -0.504181
13.750000 0.649485 -0.529334
13.800000 0.614389 -0.554095
13.850000 0.549993 -0.578471
13.900000 0.457882 -0.602469
13.950000 0.340329 -0.626093
14.000000 0.200222 -0.649350
14.050000 0.040984 -0.672247
14.100000 -0.133533 -0.694787
14.150000 -0.319149 -0.716978
14.200000 -0.511470 -0.738825
14.250000 -0.706009 -0.760332
14.300000 -0.898296 -0.781506
14.350000 -1.083997 -0.802351
14.400000 -1.259021 -0.822874
14.450000 -1.419620 -0.843078
14.500000 -1.562478 -0.862969
14.550000 -1.684788 -0.882552
14.600000 -1.784316 -0.901831
14.650000 -1.859442 -0.920812
14.700000 -1.909197 -0.939500
14.750000 -1.933270 -0.957897
14.800000 -1.932005 -0.976011
14.850000 -1.906383 -0.993844
14.900000 -1.857978 -1.011401
14.950000 -1.788912 -1.028686
15.000000 -1.701787 -1.045705
15.050000 -1.599612 -1.062460
15.100000 -1.485713 -1.078956
15.150000 -1.363650 -1.095198
15.200000 -1.237114 -1.111189
15.250000 -1.109835 -1.126932
15.300000 -0.985484 -1.142433
15.350000 -0.867581 -1.157694
15.400000 -0.759406 -1.172720
15.450000 -0.663925 -1.187514
15.500000 -0.583713 -1.202080
15.550000 -0.520902 -1.216421
15.600000 -0.477132 -1.230541
15.650000 -0.453519 -1.244443
15.700000 -0.450635 -1.258131
15.750000 -0.468507 -1.271609
15.800000 -0.506627 -1.284878
15.850000 -0.563970 -1.297943
15.900000 -0.639036 -1.310807
15.950000 -0.729894 -1.323473
16.000000 -0.834244 -1.335944
16.050000 -0.949475 -1.348223
16.100000 -1.072748 -1.360313
16.150000 -1.201063 -1.372217
16.200000 -1.331347 -1.383938
16.250000 -1.460530 -1.395478
16.300000 -1.585623 -1.406842
16.350000 -1.703796 -1.418030
16.400000 -1.812444 -1.429047
16.450000 -1.909251 -1.439894
16.500000 -1.992245 -1.450575
16.550000 -2.059841 -1.461092
16.600000 -2.110871 -1.471447
16.650000 -2.144613 -1.481643
16.700000 -2.160794 -1.491683
16.750000 -2.159591 -1.501568
16.800000 -2.141620 -1.511302
16.850000 -2.107910 -1.520887
16.900000 -2.059868 -1.530325
16.950000 -1.999238 -1.539617
17.000000 -1.928047 -1.548768
17.050000 -1.848552 -1.557778
17.100000 -1.763174 -1.566650
17.150000 -1.674436 -1.575386
17.200000 -1.584894 -1.583988
17.250000 -1.497073 -1.592458
17.300000 -1.413402 -1.600799
17.350000 -1.336155 -1.609012
17.400000 -1.267393 -1.617099
17.450000 -1.208920 -1.625063
17.500000 -1.162237 -1.632904
17.550000 -1.128513 -1.640626
17.600000 -1.108560 -1.648229
17.650000 -1.102819 -1.655716
17.700000 -1.111356 -1.663089
17.750000 -1.133867 -1.670349
17.800000 -1.169696 -1.677498
17.850000 -1.217854 -1.684538
17.900000 -1.277054 -1.691470
17.950000 -1.345746 -1.698296
18.000000 -1.422168 -1.705018
18.050000 -1.504389 -1.711637
18.100000 -1.590363 -1.718155
18.150000 -1.677988 -1.724573
18.200000 -1.765153 -1.730894
18.250000 -1.849801 -1.737118
18.300000 -1.929973 -1.743247
18.350000 -2.003861 -1.749282
18.400000 -2.069850 -1.755226
18.450000 -2.126553 -1.761079
18.500000 -2.172850 -1.766842
18.550000 -2.207900 -1.772518
18.600000 -2.231168 -1.778107
18.650000 -2.242426 -1.783611
18.700000 -2.241757 -1.789031
18.750000 -2.229543 -1.794368
18.800000 -2.206455 -1.799624
18.850000 -2.173424 -1.804800
18.900000 -2.131618 -1.809898
18.950000 -2.082402 -1.814917
19.000000 -2.027306 -1.819860
19.050000 -1.967978 -1.824728
19.100000 -1.906139 -1.829522
19.150000 -1.843541 -1.834243
19.200000 -1.781920 -1.838892
19.250000 -1.722952 -1.843470
19.300000 -1.668211 -1.847978
19.350000 -1.619132 -1.852418
19.400000 -1.576974 -1.856791
19.450000 -1.542794 -1.861097
19.500000 -1.517426 -1.865337
19.550000 -1.501456 -1.869513
19.600000 -1.495220 -1.873626
19.650000 -1.498797 -1.877676
19.700000 -1.512011 -1.881664
19.750000 -1.534441 -1.885592
19.800000 -1.565438 -1.889461
19.850000 -1.604145 -1.893270
19.900000 -1.649520 -1.897022
19.950000 -1.700373 -1.900716
20.000000 -1.755392 -1.904355
20.050000 -1.813183 -1.907938
20.100000 -1.872307 -1.911467
20.150000 -1.931316 -1.914943
20.200000 -1.988792 -1.918365
20.250000 -2.043382 -1.921736
20.300000 -2.093831 -1.925056
20.350000 -2.139012 -1.928325
20.400000 -2.177955 -1.931545
20.450000 -2.209865 -1.934716
20.500000 -2.234140 -1.937839
20.550000 -2.250387 -1.940914
20.600000 -2.258420 -1.943943
20.650000 -2.258270 -1.946926
20.700000 -2.250172 -1.949864
20.750000 -2.234560 -1.952757
20.800000 -2.212052 -1.955607
20.850000 -2.183426 -1.958413
20.900000 -2.149605 -1.961177
20.950000 -2.111622 -1.963899
21.000000 -2.070598 -1.966579
21.050000 -2.027709 -1.969220
21.100000 -1.984154 -1.971820
21.150000 -1.941127 -1.974381
21.200000 -1.899783 -1.976903
21.250000 -1.861211 -1.979387
21.300000 -1.826409 -1.981833
21.350000 -1.796256 -1.984243
21.400000 -1.771497 -1.986616
21.450000 -1.752722 -1.988953
21.500000 -1.740356 -1.991254
21.550000 -1.734653 -1.993521
21.600000 -1.735688 -1.995754
21.650000 -1.743363 -1.997953
21.700000 -1.757410 -2.000119
21.750000 -1.777405 -2.002251
21.800000 -1.802777 -2.004352
21.850000 -1.832827 -2.006421
21.900000 -1.866750 -2.008459
21.950000 -1.903658 -2.010466
22.000000 -1.942599 -2.012443
22.050000 -1.982590 -2.014389
22.100000 -2.022638 -2.016307
22.150000 -2.061766 -2.018195
22.200000 -2.099040 -2.020055
22.250000 -2.133588 -2.021887
22.300000 -2.164628 -2.023692
22.350000 -2.191476 -2.025469
22.400000 -2.213574 -2.027219
22.450000 -2.230490 -2.028943
22.500000 -2.241935 -2.030641
22.550000 -2.247765 -2.032313
22.600000 -2.247981 -2.033960
22.650000 -2.242725 -2.035582
22.700000 -2.232279 -2.037180
22.750000 -2.217050 -2.038754
22.800000 -2.197559 -2.040304
22.850000 -2.174424 -2.041830
22.900000 -2.148347 -2.043334
22.950000 -2.120089 -2.044815
23.000000 -2.090452 -2.046273
23.050000 -2.060258 -2.047710
23.100000 -2.030326 -2.049125
23.150000 -2.001452 -2.050519
23.200000 -1.974391 -2.051891
23.250000 -1.949834 -2.053244
23.300000 -1.928397 -2.054575
23.350000 -1.910602 -2.055887
23.400000 -1.896868 -2.057179
23.450000 -1.887501 -2.058451
23.500000 -1.882691 -2.059705
23.550000 -1.882504 -2.060939
23.600000 -1.886890 -2.062155
23.650000 -1.895678 -2.063353
23.700000 -1.908592 -2.064532
23.750000 -1.925251 -2.065694
23.800000 -1.945189 -2.066838
23.850000 -1.967861 -2.067966
23.900000 -1.992665 -2.069076
23.950000 -2.018953 -2.070169
24.000000 -2.046052 -2.071247
24.050000 -2.073283 -2.072307
24.100000 -2.099973 -2.073352
24.150000 -2.125475 -2.074382
24.200000 -2.149188 -2.075396
24.250000 -2.170565 -2.076394
24.300000 -2.189129 -2.077378
24.350000 -2.204484 -2.078347
24.400000 -2.216324 -2.079301
24.450000 -2.224437 -2.080241
24.500000 -2.228711 -2.081167
24.550000 -2.229134 -2.082078
24.600000 -2.225792 -2.082977
24.650000 -2.218866 -2.083861
24.700000 -2.208622 -2.084733
24.750000 -2.195410 -2.085591
24.800000 -2.179645 -2.086437
24.850000 -2.161802 -2.087270
24.900000 -2.142396 -2.088090
24.950000 -2.121977 -2.088898
25.000000 -2.101105 -2.089694
25.050000 -2.080343 -2.090478
25.100000 -2.060240 -2.091250
25.150000 -2.041319 -2.092011
25.200000 -2.024058 -2.092760
25.250000 -2.008887 -2.093498
25.300000 -1.996173 -2.094225
25.350000 -1.986213 -2.094941
25.400000 -1.979226 -2.095646
25.450000 -1.975353 -2.096341
25.500000 -1.974652 -2.097025
25.550000 -1.977096 -2.097699
25.600000 -1.982580 -2.098363
25.650000 -1.990924 -2.099017
25.700000 -2.001875 -2.099661
25.750000 -2.015120 -2.100296
25.800000 -2.030293 -2.100921
25.850000 -2.046984 -2.101537
25.900000 -2.064755 -2.102143
25.950000 -2.083144 -2.102741
26.000000 -2.101685 -2.103329
26.050000 -2.119917 -2.103909
26.100000 -2.137393 -2.104480
26.150000 -2.153696 -2.105042
26.200000 -2.168445 -2.105596
26.250000 -2.181307 -2.106142
26.300000 -2.192004 -2.106679
26.350000 -2.200316 -2.107209
26.400000 -2.206090 -2.107731
26.450000 -2.209241 -2.108244
26.500000 -2.209751 -2.108750
26.550000 -2.207670 -2.109249
26.600000 -2.203114 -2.109740
26.650000 -2.196259 -2.110224
26.700000 -2.187337 -2.110700
26.750000 -2.176628 -2.111170
26.800000 -2.164451 -2.111632
26.850000 -2.151158 -2.112088
26.900000 -2.137122 -2.112536
26.950000 -2.122727 -2.112978
27.000000 -2.108360 -2.113414
27.050000 -2.094399 -2.113842
27.100000 -2.081204 -2.114265
27.150000 -2.069108 -2.114681
27.200000 -2.058410 -2.115091
27.250000 -2.049368 -2.115495
27.300000 -2.042192 -2.115892
27.350000 -2.037039 -2.116284
27.400000 -2.034014 -2.116670
27.450000 -2.033161 -2.117050
27.500000 -2.034472 -2.117425
27.550000 -2.037880 -2.117794
27.600000 -2.043269 -2.118157
27.650000 -2.050471 -2.118515
27.700000 -2.059278 -2.118868
27.750000 -2.069441 -2.119215
27.800000 -2.080685 -2.119557
27.850000 -2.092709 -2.119894
27.900000 -2.105200 -2.120227
27.950000 -2.117838 -2.120554
28.000000 -2.130305 -2.120876
28.050000 -2.142295 -2.121193
28.100000 -2.153516 -2.121506
28.150000 -2.163706 -2.121814
28.200000 -2.172631 -2.122117
28.250000 -2.180095 -2.122416
28.300000 -2.185942 -2.122711
28.350000 -2.190062 -2.123001
28.400000 -2.192390 -2.123287
28.450000 -2.192906 -2.123568
28.500000 -2.191641 -2.123845
28.550000 -2.188668 -2.124119
28.600000 -2.184101 -2.124388
28.650000 -2.178096 -2.124653
28.700000 -2.170840 -2.124914
28.750000 -2.162550 -2.125171
28.800000 -2.153462 -2.125424
28.850000 -2.143833 -2.125674
28.900000 -2.133925 -2.125920
28.950000 -2.124002 -2.126162
29.000000 -2.114325 -2.126401
29.050000 -2.105143 -2.126636
29.100000 -2.096687 -2.126867
29.150000 -2.089165 -2.127096
29.200000 -2.082758 -2.127320
29.250000 -2.077615 -2.127542
29.300000 -2.073847 -2.127760
29.350000 -2.071531 -2.127975
29.400000 -2.070704 -2.128186
29.450000 -2.071363 -2.128395
29.500000 -2.073469 -2.128600
29.550000 -2.076946 -2.128803
29.600000 -2.081683 -2.129002
29.650000 -2.087541 -2.129198
29.700000 -2.094353 -2.129392
29.750000 -2.101932 -2.129582
29.800000 -2.110073 -2.129770
29.850000 -2.118564 -2.129955
29.900000 -2.127184 -2.130137
29.950000 -2.135716 -2.130316
30.000000 -2.143948 -2.130493
30.050000 -2.151679 -2.130667
30.100000 -2.158725 -2.130839
30.150000 -2.164925 -2.131008
30.200000 -2.170139 -2.131175
30.250000 -2.174258 -2.131339
30.300000 -2.177201 -2.131500
30.350000 -2.178920 -2.131659
30.400000 -2.179398 -2.131816
30.450000 -2.178650 -2.131971
30.500000 -2.176724 -2.132123
30.550000 -2.173695 -2.132273
30.600000 -2.169665 -2.132421
30.650000 -2.164760 -2.132566
30.700000 -2.159126 -2.132710
30.750000 -2.152925 -2.132851
30.800000 -2.146330 -2.132990
30.850000 -2.139520 -2.133127
30.900000 -2.132677 -2.133262
30.950000 -2.125981 -2.133395
31.000000 -2.119603 -2.133526
31.050000 -2.113703 -2.133655
31.100000 -2.108427 -2.133782
31.150000 -2.103901 -2.133908
31.200000 -2.100229 -2.134031
31.250000 -2.097493 -2.134153
31.300000 -2.095746 -2.134273
31.350000 -2.095019 -2.134391
31.400000 -2.095314 -2.134507
31.450000 -2.096605 -2.134621
31.500000 -2.098844 -2.134734
31.550000 -2.101959 -2.134845
31.600000 -2.105856 -2.134955
31.650000 -2.110423 -2.135063
31.700000 -2.115533 -2.135169
31.750000 -2.121049 -2.135274
31.800000 -2.126823 -2.135377
31.850000 -2.132706 -2.135479
31.900000 -2.138547 -2.135579
31.950000 -2.144202 -2.135677
32.000000 -2.149531 -2.135775
32.050000 -2.154407 -2.135870
32.100000 -2.158716 -2.135965
32.150000 -2.162361 -2.136058
32.200000 -2.165264 -2.136149
32.250000 -2.167368 -2.136239
32.300000 -2.168635 -2.136328
32.350000 -2.169053 -2.136416
32.400000 -2.168628 -2.136502
32.450000 -2.167390 -2.136587
32.500000 -2.165389 -2.136670
32.550000 -2.162691 -2.136753
32.600000 -2.159382 -2.136834
32.650000 -2.155561 -2.136914
32.700000 -2.151335 -2.136993
32.750000 -2.146824 -2.137071
32.800000 -2.142150 -2.137147
32.850000 -2.137438 -2.137223
32.900000 -2.132811 -2.137297
32.950000 -2.128387 -2.137370
33.000000 -2.124278 -2.137442
33.050000 -2.120584 -2.137513
33.100000 -2.117394 -2.137583
33.150000 -2.114782 -2.137652
33.200000 -2.112805 -2.137720
33.250000 -2.111503 -2.137787
33.300000 -2.110898 -2.137853
33.350000 -2.110995 -2.137918
33.400000 -2.111779 -2.137982
33.450000 -2.113218 -2.138045
33.500000 -2.115264 -2.138107
33.550000 -2.117856 -2.138168
33.600000 -2.120918 -2.138228
33.650000 -2.124365 -2.138288
33.700000 -2.128102 -2.138346
33.750000 -2.132030 -2.138404
33.800000 -2.136046 -2.138461
33.850000 -2.140047 -2.138517
33.900000 -2.143933 -2.138572
33.950000 -2.147608 -2.138626
34.000000 -2.150983 -2.138680
34.050000 -2.153979 -2.138732
34.100000 -2.156528 -2.138784
34.150000 -2.158575 -2.138835
34.200000 -2.160078 -2.138886
34.250000 -2.161011 -2.138935
34.300000 -2.161361 -2.138984
34.350000 -2.161133 -2.139032
34.400000 -2.160344 -2.139080
34.450000 -2.159027 -2.139127
34.500000 -2.157226 -2.139173
34.550000 -2.154998 -2.139218
34.600000 -2.152409 -2.139263
34.650000 -2.149534 -2.139307
34.700000 -2.146452 -2.139351
34.750000 -2.143248 -2.139393
34.800000 -2.140007 -2.139435
34.850000 -2.136813 -2.139477
34.900000 -2.133748 -2.139518
34.950000 -2.130890 -2.139558
35.000000 -2.128309 -2.139598
35.050000 -2.126065 -2.139637
35.100000 -2.124212 -2.139676
35.150000 -2.122790 -2.139714
35.200000 -2.121828 -2.139751
35.250000 -2.121342 -2.139788
35.300000 -2.121338 -2.139824
35.350000 -2.121807 -2.139860
35.400000 -2.122729 -2.139895
35.450000 -2.124073 -2.139930
35.500000 -2.125796 -2.139964
35.550000 -2.127849 -2.139998
35.600000 -2.130173 -2.140031
35.650000 -2.132706 -2.140064
35.700000 -2.135378 -2.140096
35.750000 -2.138120 -2.140128
35.800000 -2.140861 -2.140159
35.850000 -2.143532 -2.140190
35.900000 -2.146066 -2.140220
35.950000 -2.148403 -2.140250
36.000000 -2.150487 -2.140280
36.050000 -2.152270 -2.140309
36.100000 -2.153713 -2.140337
36.150000 -2.154786 -2.140366
36.200000 -2.155471 -2.140393
36.250000 -2.155756 -2.140421
36.300000 -2.155645 -2.140448
36.350000 -2.155147 -2.140474
36.400000 -2.154283 -2.140501
36.450000 -2.153083 -2.140526
36.500000 -2.151586 -2.140552
36.550000 -2.149835 -2.140577
36.600000 -2.147880 -2.140602
36.650000 -2.145778 -2.140626
36.700000 -2.143583 -2.140650
36.750000 -2.141356 -2.140673
36.800000 -2.139154 -2.140697
36.850000 -2.137033 -2.140720
36.900000 -2.135048 -2.140742
36.950000 -2.133246 -2.140764
37.000000 -2.131671 -2.140786
37.050000 -2.130359 -2.140808
37.100000 -2.129340 -2.140829
37.150000 -2.128634 -2.140850
37.200000 -2.128254 -2.140871
37.250000 -2.128204 -2.140891
37.300000 -2.128479 -2.140911
37.350000 -2.129068 -2.140931
37.400000 -2.129948 -2.140950
37.450000 -2.131093 -2.140969
37.500000 -2.132469 -2.140988
37.550000 -2.134037 -2.141007
37.600000 -2.135753 -2.141025
37.650000 -2.137571 -2.141043
37.700000 -2.139443 -2.141061
37.750000 -2.141321 -2.141079
37.800000 -2.143157 -2.141096
37.850000 -2.144905 -2.141113
37.900000 -2.146523 -2.141130
37.950000 -2.147972 -2.141146
38.000000 -2.149219 -2.141163
38.050000 -2.150236 -2.141179
38.100000 -2.151002 -2.141194
38.150000 -2.151503 -2.141210
38.200000 -2.151731 -2.141225
38.250000 -2.151686 -2.141240
38.300000 -2.151374 -2.141255
38.350000 -2.150810 -2.141270
38.400000 -2.150013 -2.141284
38.450000 -2.149008 -2.141299
38.500000 -2.147825 -2.141313
38.550000 -2.146499 -2.141327
38.600000 -2.145065 -2.141340
38.650000 -2.143564 -2.141354
38.700000 -2.142034 -2.141367
38.750000 -2.140517 -2.141380
38.800000 -2.139051 -2.141393
38.850000 -2.137674 -2.141405
38.900000 -2.136417 -2.141418
38.950000 -2.135313 -2.141430
39.000000 -2.134387 -2.141442
39.050000 -2.133658 -2.141454
39.100000 -2.133143 -2.141466
39.150000 -2.132851 -2.141477
39.200000 -2.132785 -2.141489
39.250000 -2.132943 -2.141500
39.300000 -2.133317 -2.141511
39.350000 -2.133893 -2.141522
39.400000 -2.134653 -2.141533
39.450000 -2.135575 -2.141543
39.500000 -2.136632 -2.141554
39.550000 -2.137794 -2.141564
39.600000 -2.139031 -2.141574
39.650000 -2.140310 -2.141584
39.700000 -2.141596 -2.141594
39.750000 -2.142858 -2.141604
39.800000 -2.144064 -2.141613
39.850000 -2.145184 -2.141623
39.900000 -2.146191 -2.141632
39.950000 -2.147063 -2.141641
40.000000 -2.147780 -2.141650
40.050000 -2.148326 -2.141659
40.100000 -2.148691 -2.141668
40.150000 -2.148870 -2.141676
40.200000 -2.148861 -2.141685
40.250000 -2.148669 -2.141693
40.300000 -2.148302 -2.141701
40.350000 -2.147774 -2.141709
40.400000 -2.147100 -2.141717
40.450000 -2.146302 -2.141725
40.500000 -2.145402 -2.141733
40.550000 -2.144426 -2.141741
40.600000 -2.143399 -2.141748
40.650000 -2.142350 -2.141756
40.700000 -2.141306 -2.141763
40.750000 -2.140294 -2.141770
40.800000 -2.139338 -2.141777
40.850000 -2.138464 -2.141784
40.900000 -2.137691 -2.141791
40.950000 -2.137037 -2.141798
41.000000 -2.136518 -2.141805
41.050000 -2.136144 -2.141811
41.100000 -2.135922 -2.141818
41.150000 -2.135856 -2.141824
41.200000 -2.135943 -2.141830
41.250000 -2.136179 -2.141837
41.300000 -2.136555 -2.141843
41.350000 -2.137060 -2.141849
41.400000 -2.137677 -2.141855
41.450000 -2.138389 -2.141861
41.500000 -2.139177 -2.141866
41.550000 -2.140018 -2.141872
41.600000 -2.140890 -2.141878
41.650000 -2.141772 -2.141883
41.700000 -2.142639 -2.141889
41.750000 -2.143470 -2.141894
41.800000 -2.144246 -2.141899
41.850000 -2.144946 -2.141905
41.900000 -2.145556 -2.141910
41.950000 -2.146060 -2.141915
42.000000 -2.146449 -2.141920
42.050000 -2.146715 -2.141925
42.100000 -2.146853 -2.141929
42.150000 -2.146862 -2.141934
42.200000 -2.146746 -2.141939
42.250000 -2.146508 -2.141943
42.300000 -2.146159 -2.141948
42.350000 -2.145708 -2.141953
42.400000 -2.145170 -2.141957
42.450000 -2.144561 -2.141961
42.500000 -2.143896 -2.141966
42.550000 -2.143195 -2.141970
42.600000 -2.142476 -2.141974
42.650000 -2.141757 -2.141978
42.700000 -2.141059 -2.141982
42.750000 -2.140397 -2.141986
42.800000 -2.139788 -2.141990
42.850000 -2.139248 -2.141994
42.900000 -2.138788 -2.141998
42.950000 -2.138419 -2.142001
43.000000 -2.138148 -2.142005
43.050000 -2.137982 -2.142009
43.100000 -2.137921 -2.142012
43.150000 -2.137967 -2.142016
43.200000 -2.138115 -2.142019
43.250000 -2.138360 -2.142023
43.300000 -2.138694 -2.142026
43.350000 -2.139107 -2.142030
43.400000 -2.139587 -2.142033
43.450000 -2.140120 -2.142036
43.500000 -2.140693 -2.142039
43.550000 -2.141288 -2.142043
43.600000 -2.141892 -2.142046
43.650000 -2.142488 -2.142049
43.700000 -2.143061 -2.142052
43.750000 -2.143597 -2.142055
43.800000 -2.144084 -2.142058
43.850000 -2.144510 -2.142060
43.900000 -2.144865 -2.142063
43.950000 -2.145142 -2.142066
44.000000 -2.145334 -2.142069
44.050000 -2.145440 -2.142072
44.100000 -2.145457 -2.142074
44.150000 -2.145388 -2.142077
44.200000 -2.145235 -2.142079
44.250000 -2.145004 -2.142082
44.300000 -2.144703 -2.142085
44.350000 -2.144341 -2.142087
44.400000 -2.143928 -2.142089
44.450000 -2.143476 -2.142092
44.500000 -2.142998 -2.142094
44.550000 -2.142505 -2.142097
44.600000 -2.142011 -2.142099
44.650000 -2.141529 -2.142101
44.700000 -2.141071 -2.142103
44.750000 -2.140648 -2.142106
44.800000 -2.140271 -2.142108
44.850000 -2.139947 -2.142110
44.900000 -2.139685 -2.142112
44.950000 -2.139491 -2.142114
45.000000 -2.139367 -2.142116
45.050000 -2.139315 -2.142118
45.100000 -2.139337 -2.142120
45.150000 -2.139429 -2.142122
45.200000 -2.139588 -2.142124
45.250000 -2.139809 -2.142126
45.300000 -2.140085 -2.142128
45.350000 -2.140409 -2.142130
45.400000 -2.140770 -2.142132
45.450000 -2.141158 -2.142133
45.500000 -2.141565 -2.142135
45.550000 -2.141978 -2.142137
45.600000 -2.142388 -2.142139
45.650000 -2.142783 -2.142140
45.700000 -2.143154 -2.142142
45.750000 -2.143492 -2.142144
45.800000 -2.143790 -2.142145
45.850000 -2.144039 -2.142147
45.900000 -2.144236 -2.142148
45.950000 -2.144375 -2.142150
46.000000 -2.144455 -2.142151
46.050000 -2.144474 -2.142153
46.100000 -2.144434 -2.142154
46.150000 -2.144336 -2.142156
46.200000 -2.144184 -2.142157
46.250000 -2.143983 -2.142159
46.300000 -2.143740 -2.142160
46.350000 -2.143461 -2.142162
46.400000 -2.143153 -2.142163
46.450000 -2.142827 -2.142164
46.500000 -2.142490 -2.142166
46.550000 -2.142151 -2.142167
46.600000 -2.141818 -2.142168
46.650000 -2.141501 -2.142169
46.700000 -2.141208 -2.142171
46.750000 -2.140944 -2.142172
46.800000 -2.140717 -2.142173
46.850000 -2.140532 -2.142174
46.900000 -2.140392 -2.142175
46.950000 -2.140300 -2.142177
47.000000 -2.140258 -2.142178
47.050000 -2.140266 -2.142179
47.100000 -2.140323 -2.142180
47.150000 -2.140426 -2.142181
47.200000 -2.140572 -2.142182
47.250000 -2.140757 -2.142183
47.300000 -2.140974 -2.142184
47.350000 -2.141218 -2.142185
47.400000 -2.141483 -2.142186
47.450000 -2.141760 -2.142187
47.500000 -2.142043 -2.142188
47.550000 -2.142324 -2.142189
47.600000 -2.142596 -2.142190
47.650000 -2.142853 -2.142191
47.700000 -2.143088 -2.142192
47.750000 -2.143296 -2.142193
47.800000 -2.143471 -2.142194
47.850000 -2.143610 -2.142195
47.900000 -2.143711 -2.142196
47.950000 -2.143771 -2.142196
48.000000 -2.143789 -2.142197
48.050000 -2.143767 -2.142198
48.100000 -2.143704 -2.142199
48.150000 -2.143605 -2.142200
48.200000 -2.143471 -2.142201
48.250000 -2.143307 -2.142201
48.300000 -2.143119 -2.142202
48.350000 -2.142910 -2.142203
48.400000 -2.142688 -2.142204
48.450000 -2.142457 -2.142204
48.500000 -2.142224 -2.142205
48.550000 -2.141995 -2.142206
48.600000 -2.141776 -2.142207
48.650000 -2.141572 -2.142207
48.700000 -2.141389 -2.142208
48.750000 -2.141229 -2.142209
48.800000 -2.141098 -2.142209
48.850000 -2.140998 -2.142210
48.900000 -2.140931 -2.142211
48.950000 -2.140897 -2.142211
49.000000 -2.140898 -2.142212
49.050000 -2.140933 -2.142213
49.100000 -2.140999 -2.142213
49.150000 -2.141096 -2.142214
49.200000 -2.141219 -2.142214
49.250000 -2.141365 -2.142215
49.300000 -2.141530 -2.142215
49.350000 -2.141710 -2.142216
49.400000 -2.141899 -2.142217
49.450000 -2.142092 -2.142217
49.500000 -2.142286 -2.142218
49.550000 -2.142473 -2.142218
49.600000 -2.142651 -2.142219
49.650000 -2.142814 -2.142219
49.700000 -2.142959 -2.142220
49.750000 -2.143082 -2.142220
49.800000 -2.143180 -2.142221
49.850000 -2.143253 -2.142221
49.900000 -2.143297 -2.142222
49.950000 -2.143314 -2.142222
50.000000 -2.143302 -2.142223
50.050000 -2.143262 -2.142223
50.100000 -2.143197 -2.142224
50.150000 -2.143108 -2.142224
50.200000 -2.142998 -2.142225
50.250000 -2.142871 -2.142225
50.300000 -2.142730 -2.142225
50.350000 -2.142578 -2.142226
50.400000 -2.142420 -2.142226
50.450000 -2.142260 -2.142227
50.500000 -2.142103 -2.142227
50.550000 -2.141951 -2.142227
50.600000 -2.141810 -2.142228
50.650000 -2.141682 -2.142228
50.700000 -2.141570 -2.142229
50.750000 -2.141478 -2.142229
50.800000 -2.141406 -2.142229
50.850000 -2.141357 -2.142230
50.900000 -2.141331 -2.142230
50.950000 -2.141329 -2.142230
51.000000 -2.141349 -2.142231
51.050000 -2.141392 -2.142231
51.100000 -2.141456 -2.142232
51.150000 -2.141538 -2.142232
51.200000 -2.141636 -2.142232
51.250000 -2.141748 -2.142233
51.300000 -2.141869 -2.142233
51.350000 -2.141998 -2.142233
51.400000 -2.142131 -2.142233
51.450000 -2.142263 -2.142234
51.500000 -2.142393 -2.142234
51.550000 -2.142515 -2.142234
51.600000 -2.142628 -2.142235
51.650000 -2.142729 -2.142235
51.700000 -2.142816 -2.142235
51.750000 -2.142886 -2.142236
51.800000 -2.142938 -2.142236
51.850000 -2.142971 -2.142236
51.900000 -2.142984 -2.142236
51.950000 -2.142978 -2.142237
52.000000 -2.142954 -2.142237
52.050000 -2.142911 -2.142237
52.100000 -2.142852 -2.142237
52.150000 -2.142779 -2.142238
52.200000 -2.142693 -2.142238
52.250000 -2.142597 -2.142238
52.300000 -2.142493 -2.142238
52.350000 -2.142386 -2.142239
52.400000 -2.142276 -2.142239
52.450000 -2.142168 -2.142239
52.500000 -2.142063 -2.142239
52.550000 -2.141965 -2.142240
52.600000 -2.141876 -2.142240
52.650000 -2.141798 -2.142240
52.700000 -2.141733 -2.142240
52.750000 -2.141682 -2.142240
52.800000 -2.141646 -2.142241
52.850000 -2.141626 -2.142241
52.900000 -2.141622 -2.142241
52.950000 -2.141634 -2.142241
53.000000 -2.141662 -2.142241
53.050000 -2.141703 -2.142242
53.100000 -2.141758 -2.142242
53.150000 -2.141824 -2.142242
53.200000 -2.141899 -2.142242
53.250000 -2.141982 -2.142242
53.300000 -2.142070 -2.142242
53.350000 -2.142160 -2.142243
53.400000 -2.142251 -2.142243
53.450000 -2.142340 -2.142243
53.500000 -2.142425 -2.142243
53.550000 -2.142504 -2.142243
53.600000 -2.142574 -2.142243
53.650000 -2.142635 -2.142244
53.700000 -2.142684 -2.142244
53.750000 -2.142721 -2.142244
53.800000 -2.142745 -2.142244
53.850000 -2.142756 -2.142244
53.900000 -2.142754 -2.142244
53.950000 -2.142739 -2.142245
54.000000 -2.142711 -2.142245
54.050000 -2.142672 -2.142245
54.100000 -2.142623 -2.142245
54.150000 -2.142565 -2.142245
54.200000 -2.142500 -2.142245
54.250000 -2.142430 -2.142245
54.300000 -2.142356 -2.142246
54.350000 -2.142281 -2.142246
54.400000 -2.142206 -2.142246
54.450000 -2.142134 -2.142246
54.500000 -2.142066 -2.142246
54.550000 -2.142004 -2.142246
54.600000 -2.141950 -2.142246
54.650000 -2.141904 -2.142246
54.700000 -2.141867 -2.142247
54.750000 -2.141841 -2.142247
54.800000 -2.141826 -2.142247
54.850000 -2.141822 -2.142247
54.900000 -2.141829 -2.142247
54.950000 -2.141847 -2.142247
55.000000 -2.141874 -2.142247
55.050000 -2.141910 -2.142247
55.100000 -2.141955 -2.142247
55.150000 -2.142006 -2.142248
55.200000 -2.142062 -2.142248
55.250000 -2.142122 -2.142248
55.300000 -2.142183 -2.142248
55.350000 -2.142246 -2.142248
55.400000 -2.142307 -2.142248
55.450000 -2.142366 -2.142248
55.500000 -2.142420 -2.142248
55.550000 -2.142469 -2.142248
55.600000 -2.142511 -2.142248
55.650000 -2.142546 -2.142248
55.700000 -2.142573 -2.142249
55.750000 -2.142591 -2.142249
55.800000 -2.142599 -2.142249
55.850000 -2.142599 -2.142249
55.900000 -2.142590 -2.142249
55.950000 -2.142572 -2.142249
56.000000 -2.142546 -2.142249
56.050000 -2.142513 -2.142249
56.100000 -2.142474 -2.142249
56.150000 -2.142430 -2.142249
56.200000 -2.142382 -2.142249
56.250000 -2.142332 -2.142249
56.300000 -2.142280 -2.142250
56.350000 -2.142229 -2.142250
56.400000 -2.142179 -2.142250
56.450000 -2.142132 -2.142250
56.500000 -2.142089 -2.142250
56.550000 -2.142051 -2.142250
56.600000 -2.142019 -2.142250
56.650000 -2.141993 -2.142250
56.700000 -2.141974 -2.142250
56.750000 -2.141963 -2.142250
56.800000 -2.141959 -2.142250
56.850000 -2.141963 -2.142250
56.900000 -2.141974 -2.142250
56.950000 -2.141992 -2.142250
57.000000 -2.142016 -2.142250
57.050000 -2.142046 -2.142251
57.100000 -2.142080 -2.142251
57.150000 -2.142118 -2.142251
57.200000 -2.142159 -2.142251
57.250000 -2.142201 -2.142251
57.300000 -2.142244 -2.142251
57.350000 -2.142286 -2.142251
57.400000 -2.142326 -2.142251
57.450000 -2.142364 -2.142251
57.500000 -2.142398 -2.142251
57.550000 -2.142428 -2.142251
57.600000 -2.142453 -2.142251
57.650000 -2.142472 -2.142251
57.700000 -2.142484 -2.142251
57.750000 -2.142491 -2.142251
57.800000 -2.142492 -2.142251
57.850000 -2.142486 -2.142251
57.900000 -2.142475 -2.142251
57.950000 -2.142458 -2.142251
58.000000 -2.142436 -2.142251
58.050000 -2.142409 -2.142252
58.100000 -2.142379 -2.142252
58.150000 -2.142347 -2.142252
58.200000 -2.142313 -2.142252
58.250000 -2.142277 -2.142252
58.300000 -2.142242 -2.142252
58.350000 -2.142208 -2.142252
58.400000 -2.142175 -2.142252
58.450000 -2.142146 -2.142252
58.500000 -2.142119 -2.142252
58.550000 -2.142096 -2.142252
58.600000 -2.142078 -2.142252
58.650000 -2.142064 -2.142252
58.700000 -2.142056 -2.142252
58.750000 -2.142053 -2.142252
58.800000 -2.142054 -2.142252
58.850000 -2.142061 -2.142252
58.900000 -2.142073 -2.142252
58.950000 -2.142089 -2.142252
59.000000 -2.142109 -2.142252
59.050000 -2.142132 -2.142252
59.100000 -2.142158 -2.142252
59.150000 -2.142186 -2.142252
59.200000 -2.142215 -2.142252
59.250000 -2.142244 -2.142252
59.300000 -2.142273 -2.142252
59.350000 -2.142301 -2.142252
59.400000 -2.142327 -2.142253
59.450000 -2.142351 -2.142253
59.500000 -2.142371 -2.142253
59.550000 -2.142389 -2.142253
59.600000 -2.142402 -2.142253
59.650000 -2.142412 -2.142253
59.700000 -2.142417 -2.142253
59.750000 -2.142418 -2.142253
59.800000 -2.142414 -2.142253
59.850000 -2.142407 -2.142253
59.900000 -2.142396 -2.142253
59.950000 -2.142381 -2.142253
60.000000 -2.142363 -2.142253
60.050000 -2.142343 -2.142253
60.100000 -2.142321 -2.142253
60.150000 -2.142298 -2.142253
60.200000 -2.142274 -2.142253
60.250000 -2.142250 -2.142253
60.300000 -2.142226 -2.142253
60.350000 -2.142203 -2.142253
60.400000 -2.142183 -2.142253
60.450000 -2.142164 -2.142253
60.500000 -2.142148 -2.142253
60.550000 -2.142135 -2.142253
60.600000 -2.142125 -2.142253
60.650000 -2.142119 -2.142253
60.700000 -2.142116 -2.142253
60.750000 -2.142117 -2.142253
60.800000 -2.142122 -2.142253
60.850000 -2.142129 -2.142253
60.900000 -2.142140 -2.142253
60.950000 -2.142153 -2.142253
61.000000 -2.142169 -2.142253
61.050000 -2.142186 -2.142253
61.100000 -2.142205 -2.142253
61.150000 -2.142225 -2.142253
61.200000 -2.142245 -2.142253
61.250000 -2.142265 -2.142253
61.300000 -2.142284 -2.142253
61.350000 -2.142302 -2.142253
61.400000 -2.142319 -2.142253
61.450000 -2.142333 -2.142253
61.500000 -2.142345 -2.142253
61.550000 -2.142355 -2.142253
61.600000 -2.142362 -2.142253
61.650000 -2.142366 -2.142253
61.700000 -2.142367 -2.142254
61.750000 -2.142365 -2.142254
61.800000 -2.142360 -2.142254
61.850000 -2.142353 -2.142254
61.900000 -2.142343 -2.142254
61.950000 -2.142331 -2.142254
62.000000 -2.142317 -2.142254
62.050000 -2.142302 -2.142254
62.100000 -2.142287 -2.142254
62.150000 -2.142270 -2.142254
62.200000 -2.142253 -2.142254
62.250000 -2.142237 -2.142254
62.300000 -2.142222 -2.142254
62.350000 -2.142207 -2.142254
62.400000 -2.142194 -2.142254
62.450000 -2.142183 -2.142254
62.500000 -2.142174 -2.142254
62.550000 -2.142167 -2.142254
62.600000 -2.142162 -2.142254
62.650000 -2.142160 -2.142254
62.700000 -2.142160 -2.142254
62.750000 -2.142163 -2.142254
62.800000 -2.142168 -2.142254
62.850000 -2.142175 -2.142254
62.900000 -2.142184 -2.142254
62.950000 -2.142194 -2.142254
63.000000 -2.142206 -2.142254
63.050000 -2.142219 -2.142254
63.100000 -2.142233 -2.142254
63.150000 -2.142246 -2.142254
63.200000 -2.142260 -2.142254
63.250000 -2.142273 -2.142254
63.300000 -2.142286 -2.142254
63.350000 -2.142297 -2.142254
63.400000 -2.142307 -2.142254
63.450000 -2.142316 -2.142254
63.500000 -2.142323 -2.142254
63.550000 -2.142328 -2.142254
63.600000 -2.142331 -2.142254
63.650000 -2.142332 -2.142254
63.700000 -2.142331 -2.142254
63.750000 -2.142328 -2.142254
63.800000 -2.142323 -2.142254
63.850000 -2.142316 -2.142254
63.900000 -2.142308 -2.142254
63.950000 -2.142299 -2.142254
64.000000 -2.142289 -2.142254
64.050000 -2.142278 -2.142254
64.100000 -2.142267 -2.142254
64.150000 -2.142255 -2.142254
64.200000 -2.142244 -2.142254
64.250000 -2.142233 -2.142254
64.300000 -2.142223 -2.142254
64.350000 -2.142214 -2.142254
64.400000 -2.142207 -2.142254
64.450000 -2.142200 -2.142254
64.500000 -2.142195 -2.142254
64.550000 -2.142192 -2.142254
64.600000 -2.142190 -2.142254
64.650000 -2.142190 -2.142254
64.700000 -2.142192 -2.142254
64.750000 -2.142195 -2.142254
64.800000 -2.142199 -2.142254
64.850000 -2.142205 -2.142254
64.900000 -2.142212 -2.142254
64.950000 -2.142220 -2.142254
65.000000 -2.142229 -2.142254
65.050000 -2.142238 -2.142254
65.100000 -2.142248 -2.142254
65.150000 -2.142257 -2.142254
65.200000 -2.142266 -2.142254
65.250000 -2.142275 -2.142254
65.300000 -2.142283 -2.142254
65.350000 -2.142290 -2.142254
65.400000 -2.142296 -2.142254
65.450000 -2.142301 -2.142254
65.500000 -2.142304 -2.142254
65.550000 -2.142307 -2.142254
65.600000 -2.142307 -2.142254
65.650000 -2.142307 -2.142254
65.700000 -2.142305 -2.142254
65.750000 -2.142302 -2.142254
65.800000 -2.142298 -2.142254
65.850000 -2.142292 -2.142254
65.900000 -2.142286 -2.142254
65.950000 -2.142279 -2.142254
66.000000 -2.142272 -2.142254
66.050000 -2.142264 -2.142254
66.100000 -2.142256 -2.142254
66.150000 -2.142248 -2.142254
66.200000 -2.142241 -2.142254
66.250000 -2.142234 -2.142254
66.300000 -2.142228 -2.142254
66.350000 -2.142222 -2.142254
66.400000 -2.142218 -2.142254
66.450000 -2.142214 -2.142254
66.500000 -2.142212 -2.142254
66.550000 -2.142210 -2.142254
66.600000 -2.142210 -2.142254
66.650000 -2.142211 -2.142254
66.700000 -2.142213 -2.142254
66.750000 -2.142216 -2.142254
66.800000 -2.142220 -2.142254
66.850000 -2.142225 -2.142254
66.900000 -2.142230 -2.142254
66.950000 -2.142236 -2.142254
67.000000 -2.142243 -2.142254
67.050000 -2.142249 -2.142254
67.100000 -2.142256 -2.142254
67.150000 -2.142262 -2.142254
67.200000 -2.142268 -2.142254
67.250000 -2.142273 -2.142254
67.300000 -2.142278 -2.142254
67.350000 -2.142283 -2.142254
67.400000 -2.142286 -2.142254
67.450000 -2.142289 -2.142254
67.500000 -2.142290 -2.142254
67.550000 -2.142291 -2.142254
67.600000 -2.142291 -2.142254
67.650000 -2.142289 -2.142254
67.700000 -2.142287 -2.142254
67.750000 -2.142284 -2.142254
67.800000 -2.142281 -2.142254
67.850000 -2.142277 -2.142254
67.900000 -2.142272 -2.142254
67.950000 -2.142267 -2.142254
68.000000 -2.142262 -2.142254
68.050000 -2.142256 -2.142254
68.100000 -2.142251 -2.142254
68.150000 -2.142246 -2.142254
68.200000 -2.142241 -2.142254
68.250000 -2.142237 -2.142254
68.300000 -2.142233 -2.142254
68.350000 -2.142230 -2.142254
68.400000 -2.142227 -2.142254
68.450000 -2.142225 -2.142254
68.500000 -2.142224 -2.142254
68.550000 -2.142224 -2.142254
68.600000 -2.142225 -2.142254
68.650000 -2.142226 -2.142254
68.700000 -2.142228 -2.142254
68.750000 -2.142231 -2.142254
68.800000 -2.142234 -2.142254
68.850000 -2.142238 -2.142254
68.900000 -2.142242 -2.142254
68.950000 -2.142246 -2.142254
69.000000 -2.142250 -2.142254
69.050000 -2.142255 -2.142254
69.100000 -2.142259 -2.142254
69.150000 -2.142263 -2.142254
69.200000 -2.142267 -2.142254
69.250000 -2.142270 -2.142254
69.300000 -2.142273 -2.142254
69.350000 -2.142276 -2.142254
69.400000 -2.142278 -2.142254
69.450000 -2.142279 -2.142254
69.500000 -2.142279 -2.142254
69.550000 -2.142279 -2.142254
69.600000 -2.142279 -2.142254
69.650000 -2.142277 -2.142254
69.700000 -2.142275 -2.142254
69.750000 -2.142273 -2.142254
69.800000 -2.142270 -2.142254
69.850000 -2.142267 -2.142254
69.900000 -2.142264 -2.142254
69.950000 -2.142260 -2.142254
70.000000 -2.142256 -2.142254
70.050000 -2.142253 -2.142254
70.100000 -2.142249 -2.142254
70.150000 -2.142246 -2.142254
70.200000 -2.142243 -2.142254
70.250000 -2.142240 -2.142254
70.300000 -2.142238 -2.142254
70.350000 -2.142236 -2.142254
70.400000 -2.142235 -2.142254
70.450000 -2.142234 -2.142254
70.500000 -2.142234 -2.142254
70.550000 -2.142234 -2.142254
70.600000 -2.142235 -2.142254
70.650000 -2.142236 -2.142254
70.700000 -2.142238 -2.142254
70.750000 -2.142240 -2.142254
70.800000 -2.142243 -2.142254
70.850000 -2.142245 -2.142254
70.900000 -2.142248 -2.142254
70.950000 -2.142251 -2.142254
71.000000 -2.142254 -2.142254
71.050000 -2.142257 -2.142254
71.100000 -2.142260 -2.142254
71.150000 -2.142263 -2.142254
71.200000 -2.142265 -2.142254
71.250000 -2.142267 -2.142254
71.300000 -2.142269 -2.142254
71.350000 -2.142270 -2.142254
71.400000 -2.142271 -2.142254
71.450000 -2.142272 -2.142254
71.500000 -2.142272 -2.142254
71.550000 -2.142271 -2.142254
71.600000 -2.142270 -2.142254
71.650000 -2.142269 -2.142254
71.700000 -2.142267 -2.142254
71.750000 -2.142266 -2.142254
71.800000 -2.142263 -2.142254
71.850000 -2.142261 -2.142254
71.900000 -2.142259 -2.142254
71.950000 -2.142256 -2.142254
72.000000 -2.142254 -2.142254
72.050000 -2.142251 -2.142254
72.100000 -2.142249 -2.142254
72.150000 -2.142247 -2.142255
72.200000 -2.142245 -2.142255
72.250000 -2.142243 -2.142255
72.300000 -2.142242 -2.142255
72.350000 -2.142241 -2.142255
72.400000 -2.142241 -2.142255
72.450000 -2.142240 -2.142255
72.500000 -2.142240 -2.142255
72.550000 -2.142241 -2.142255
72.600000 -2.142242 -2.142255
72.650000 -2.142243 -2.142255
72.700000 -2.142244 -2.142255
72.750000 -2.142246 -2.142255
72.800000 -2.142248 -2.142255
72.850000 -2.142250 -2.142255
72.900000 -2.142252 -2.142255
72.950000 -2.142254 -2.142255
73.000000 -2.142256 -2.142255
73.050000 -2.142258 -2.142255
73.100000 -2.142260 -2.142255
73.150000 -2.142262 -2.142255
73.200000 -2.142263 -2.142255
73.250000 -2.142264 -2.142255
73.300000 -2.142265 -2.142255
73.350000 -2.142266 -2.142255
73.400000 -2.142266 -2.142255
73.450000 -2.142266 -2.142255
73.500000 -2.142266 -2.142255
73.550000 -2.142265 -2.142255
73.600000 -2.142265 -2.142255
73.650000 -2.142264 -2.142255
73.700000 -2.142262 -2.142255
73.750000 -2.142261 -2.142255
73.800000 -2.142259 -2.142255
73.850000 -2.142258 -2.142255
73.900000 -2.142256 -2.142255
73.950000 -2.142254 -2.142255
74.000000 -2.142252 -2.142255
74.050000 -2.142251 -2.142255
74.100000 -2.142249 -2.142255
74.150000 -2.142248 -2.142255
74.200000 -2.142247 -2.142255
74.250000 -2.142246 -2.142255
74.300000 -2.142245 -2.142255
74.350000 -2.142245 -2.142255
74.400000 -2.142245 -2.142255
74.450000 -2.142245 -2.142255
74.500000 -2.142245 -2.142255
74.550000 -2.142246 -2.142255
74.600000 -2.142247 -2.142255
74.650000 -2.142247 -2.142255
74.700000 -2.142249 -2.142255
74.750000 -2.142250 -2.142255
74.800000 -2.142251 -2.142255
74.850000 -2.142253 -2.142255
74.900000 -2.142254 -2.142255
74.950000 -2.142255 -2.142255
75.000000 -2.142257 -2.142255
75.050000 -2.142258 -2.142255
75.100000 -2.142259 -2.142255
75.150000 -2.142260 -2.142255
75.200000 -2.142261 -2.142255
75.250000 -2.142262 -2.142255
75.300000 -2.142262 -2.142255
75.350000 -2.142263 -2.142255
75.400000 -2.142263 -2.142255
75.450000 -2.142262 -2.142255
75.500000 -2.142262 -2.142255
75.550000 -2.142262 -2.142255
75.600000 -2.142261 -2.142255
75.650000 -2.142260 -2.142255
75.700000 -2.142259 -2.142255
75.750000 -2.142258 -2.142255
75.800000 -2.142257 -2.142255
75.850000 -2.142256 -2.142255
75.900000 -2.142254 -2.142255
75.950000 -2.142253 -2.142255
76.000000 -2.142252 -2.142255
76.050000 -2.142251 -2.142255
76.100000 -2.142250 -2.142255
76.150000 -2.142249 -2.142255
76.200000 -2.142249 -2.142255
76.250000 -2.142248 -2.142255
76.300000 -2.142248 -2.142255
76.350000 -2.142248 -2.142255
76.400000 -2.142248 -2.142255
76.450000 -2.142248 -2.142255
76.500000 -2.142248 -2.142255
76.550000 -2.142249 -2.142255
76.600000 -2.142250 -2.142255
76.650000 -2.142250 -2.142255
76.700000 -2.142251 -2.142255
76.750000 -2.142252 -2.142255
76.800000 -2.142253 -2.142255
76.850000 -2.142254 -2.142255
76.900000 -2.142255 -2.142255
76.950000 -2.142256 -2.142255
77.000000 -2.142257 -2.142255
77.050000 -2.142258 -2.142255
77.100000 -2.142258 -2.142255
77.150000 -2.142259 -2.142255
77.200000 -2.142259 -2.142255
77.250000 -2.142260 -2.142255
77.300000 -2.142260 -2.142255
77.350000 -2.142260 -2.142255
77.400000 -2.142260 -2.142255
77.450000 -2.142260 -2.142255
77.500000 -2.142259 -2.142255
77.550000 -2.142259 -2.142255
77.600000 -2.142258 -2.142255
77.650000 -2.142258 -2.142255
77.700000 -2.142257 -2.142255
77.750000 -2.142256 -2.142255
77.800000 -2.142255 -2.142255
77.850000 -2.142255 -2.142255
77.900000 -2.142254 -2.142255
77.950000 -2.142253 -2.142255
78.000000 -2.142252 -2.142255
78.050000 -2.142252 -2.142255
78.100000 -2.142251 -2.142255
78.150000 -2.142251 -2.142255
78.200000 -2.142250 -2.142255
78.250000 -2.142250 -2.142255
78.300000 -2.142250 -2.142255
78.350000 -2.142250 -2.142255
78.400000 -2.142250 -2.142255
78.450000 -2.142250 -2.142255
78.500000 -2.142251 -2.142255
78.550000 -2.142251 -2.142255
78.600000 -2.142252 -2.142255
78.650000 -2.142252 -2.142255
78.700000 -2.142253 -2.142255
78.750000 -2.142253 -2.142255
78.800000 -2.142254 -2.142255
78.850000 -2.142255 -2.142255
78.900000 -2.142255 -2.142255
78.950000 -2.142256 -2.142255
79.000000 -2.142257 -2.142255
79.050000 -2.142257 -2.142255
79.100000 -2.142258 -2.142255
79.150000 -2.142258 -2.142255
79.200000 -2.142258 -2.142255
79.250000 -2.142258 -2.142255
79.300000 -2.142258 -2.142255
79.350000 -2.142258 -2.142255
79.400000 -2.142258 -2.142255
79.450000 -2.142258 -2.142255
79.500000 -2.142258 -2.142255
79.550000 -2.142257 -2.142255
79.600000 -2.142257 -2.142255
79.650000 -2.142256 -2.142255
79.700000 -2.142256 -2.142255
79.750000 -2.142255 -2.142255
79.800000 -2.142255 -2.142255
79.850000 -2.142254 -2.142255
79.900000 -2.142254 -2.142255
79.950000 -2.142253 -2.142255
80.000000 -2.142253 -2.142255
80.050000 -2.142252 -2.142255
80.100000 -2.142252 -2.142255
80.150000 -2.142252 -2.142255
80.200000 -2.142252 -2.142255
80.250000 -2.142251 -2.142255
80.300000 -2.142251 -2.142255
80.350000 -2.142251 -2.142255
80.400000 -2.142252 -2.142255
80.450000 -2.142252 -2.142255
80.500000 -2.142252 -2.142255
80.550000 -2.142252 -2.142255
80.600000 -2.142253 -2.142255
80.650000 -2.142253 -2.142255
80.700000 -2.142254 -2.142255
80.750000 -2.142254 -2.142255
80.800000 -2.142255 -2.142255
80.850000 -2.142255 -2.142255
80.900000 -2.142256 -2.142255
80.950000 -2.142256 -2.142255
81.000000 -2.142256 -2.142255
81.050000 -2.142257 -2.142255
81.100000 -2.142257 -2.142255
81.150000 -2.142257 -2.142255
81.200000 -2.142257 -2.142255
81.250000 -2.142257 -2.142255
81.300000 -2.142257 -2.142255
81.350000 -2.142257 -2.142255
81.400000 -2.142257 -2.142255
81.450000 -2.142257 -2.142255
81.500000 -2.142256 -2.142255
81.550000 -2.142256 -2.142255
81.600000 -2.142256 -2.142255
81.650000 -2.142255 -2.142255
81.700000 -2.142255 -2.142255
81.750000 -2.142255 -2.142255
81.800000 -2.142254 -2.142255
81.850000 -2.142254 -2.142255
81.900000 -2.142254 -2.142255
81.950000 -2.142253 -2.142255
82.000000 -2.142253 -2.142255
82.050000 -2.142253 -2.142255
82.100000 -2.142253 -2.142255
82.150000 -2.142252 -2.142255
82.200000 -2.142252 -2.142255
82.250000 -2.142252 -2.142255
82.300000 -2.142252 -2.142255
82.350000 -2.142253 -2.142255
82.400000 -2.142253 -2.142255
82.450000 -2.142253 -2.142255
82.500000 -2.142253 -2.142255
82.550000 -2.142253 -2.142255
82.600000 -2.142254 -2.142255
82.650000 -2.142254 -2.142255
82.700000 -2.142254 -2.142255
82.750000 -2.142255 -2.142255
82.800000 -2.142255 -2.142255
82.850000 -2.142255 -2.142255
82.900000 -2.142255 -2.142255
82.950000 -2.142256 -2.142255
83.000000 -2.142256 -2.142255
83.050000 -2.142256 -2.142255
83.100000 -2.142256 -2.142255
83.150000 -2.142256 -2.142255
83.200000 -2.142256 -2.142255
83.250000 -2.142256 -2.142255
83.300000 -2.142256 -2.142255
83.350000 -2.142256 -2.142255
83.400000 -2.142256 -2.142255
83.450000 -2.142256 -2.142255
83.500000 -2.142256 -2.142255
83.550000 -2.142255 -2.142255
83.600000 -2.142255 -2.142255
83.650000 -2.142255 -2.142255
83.700000 -2.142255 -2.142255
83.750000 -2.142254 -2.142255
83.800000 -2.142254 -2.142255
83.850000 -2.142254 -2.142255
83.900000 -2.142254 -2.142255
83.950000 -2.142254 -2.142255
84.000000 -2.142253 -2.142255
84.050000 -2.142253 -2.142255
84.100000 -2.142253 -2.142255
84.150000 -2.142253 -2.142255
84.200000 -2.142253 -2.142255
84.250000 -2.142253 -2.142255
84.300000 -2.142253 -2.142255
84.350000 -2.142253 -2.142255
84.400000 -2.142253 -2.142255
84.450000 -2.142254 -2.142255
84.500000 -2.142254 -2.142255
84.550000 -2.142254 -2.142255
84.600000 -2.142254 -2.142255
84.650000 -2.142254 -2.142255
84.700000 -2.142255 -2.142255
84.750000 -2.142255 -2.142255
84.800000 -2.142255 -2.142255
84.850000 -2.142255 -2.142255
84.900000 -2.142255 -2.142255
84.950000 -2.142255 -2.142255
85.000000 -2.142256 -2.142255
85.050000 -2.142256 -2.142255
85.100000 -2.142256 -2.142255
85.150000 -2.142256 -2.142255
85.200000 -2.142256 -2.142255
85.250000 -2.142256 -2.142255
85.300000 -2.142256 -2.142255
85.350000 -2.142256 -2.142255
85.400000 -2.142255 -2.142255
85.450000 -2.142255 -2.142255
85.500000 -2.142255 -2.142255
85.550000 -2.142255 -2.142255
85.600000 -2.142255 -2.142255
85.650000 -2.142255 -2.142255
85.700000 -2.142254 -2.142255
85.750000 -2.142254 -2.142255
85.800000 -2.142254 -2.142255
85.850000 -2.142254 -2.142255
85.900000 -2.142254 -2.142255
85.950000 -2.142254 -2.142255
86.000000 -2.142254 -2.142255
86.050000 -2.142254 -2.142255
86.100000 -2.142254 -2.142255
86.150000 -2.142254 -2.142255
86.200000 -2.142254 -2.142255
86.250000 -2.142254 -2.142255
86.300000 -2.142254 -2.142255
86.350000 -2.142254 -2.142255
86.400000 -2.142254 -2.142255
86.450000 -2.142254 -2.142255
86.500000 -2.142254 -2.142255
86.550000 -2.142254 -2.142255
86.600000 -2.142254 -2.142255
86.650000 -2.142255 -2.142255
86.700000 -2.142255 -2.142255
86.750000 -2.142255 -2.142255
86.800000 -2.142255 -2.142255
86.850000 -2.142255 -2.142255
86.900000 -2.142255 -2.142255
86.950000 -2.142255 -2.142255
87.000000 -2.142255 -2.142255
87.050000 -2.142255 -2.142255
87.100000 -2.142255 -2.142255
87.150000 -2.142255 -2.142255
87.200000 -2.142255 -2.142255
87.250000 -2.142255 -2.142255
87.300000 -2.142255 -2.142255
87.350000 -2.142255 -2.142255
87.400000 -2.142255 -2.142255
87.450000 -2.142255 -2.142255
87.500000 -2.142255 -2.142255
87.550000 -2.142255 -2.142255
87.600000 -2.142255 -2.142255
87.650000 -2.142255 -2.142255
87.700000 -2.142254 -2.142255
87.750000 -2.142254 -2.142255
87.800000 -2.142254 -2.142255
87.850000 -2.142254 -2.142255
87.900000 -2.142254 -2.142255
87.950000 -2.142254 -2.142255
88.000000 -2.142254 -2.142255
88.050000 -2.142254 -2.142255
88.100000 -2.142254 -2.142255
88.150000 -2.142254 -2.142255
88.200000 -2.142254 -2.142255
88.250000 -2.142254 -2.142255
88.300000 -2.142254 -2.142255
88.350000 -2.142254 -2.142255
88.400000 -2.142254 -2.142255
88.450000 -2.142254 -2.142255
88.500000 -2.142254 -2.142255
88.550000 -2.142254 -2.142255
88.600000 -2.142255 -2.142255
88.650000 -2.142255 -2.142255
88.700000 -2.142255 -2.142255
88.750000 -2.142255 -2.142255
88.800000 -2.142255 -2.142255
88.850000 -2.142255 -2.142255
88.900000 -2.142255 -2.142255
88.950000 -2.142255 -2.142255
89.000000 -2.142255 -2.142255
89.050000 -2.142255 -2.142255
89.100000 -2.142255 -2.142255
89.150000 -2.142255 -2.142255
89.200000 -2.142255 -2.142255
89.250000 -2.142255 -2.142255
89.300000 -2.142255 -2.142255
89.350000 -2.142255 -2.142255
89.400000 -2.142255 -2.142255
89.450000 -2.142255 -2.142255
89.500000 -2.142255 -2.142255
89.550000 -2.142255 -2.142255
89.600000 -2.142255 -2.142255
89.650000 -2.142254 -2.142255
89.700000 -2.142254 -2.142255
89.750000 -2.142254 -2.142255
89.800000 -2.142254 -2.142255
89.850000 -2.142254 -2.142255
89.900000 -2.142254 -2.142255
89.950000 -2.142254 -2.142255
90.000000 -2.142254 -2.142255
90.050000 -2.142254 -2.142255
90.100000 -2.142254 -2.142255
90.150000 -2.142254 -2.142255
90.200000 -2.142254 -2.142255
90.250000 -2.142254 -2.142255
90.300000 -2.142254 -2.142255
90.350000 -2.142254 -2.142255
90.400000 -2.142254 -2.142255
90.450000 -2.142254 -2.142255
90.500000 -2.142254 -2.142255
90.550000 -2.142255 -2.142255
90.600000 -2.142255 -2.142255
90.650000 -2.142255 -2.142255
90.700000 -2.142255 -2.142255
90.750000 -2.142255 -2.142255
90.800000 -2.142255 -2.142255
90.850000 -2.142255 -2.142255
90.900000 -2.142255 -2.142255
90.950000 -2.142255 -2.142255
91.000000 -2.142255 -2.142255
91.050000 -2.142255 -2.142255
91.100000 -2.142255 -2.142255
91.150000 -2.142255 -2.142255
91.200000 -2.142255 -2.142255
91.250000 -2.142255 -2.142255
91.300000 -2.142255 -2.142255
91.350000 -2.142255 -2.142255
91.400000 -2.142255 -2.142255
91.450000 -2.142255 -2.142255
91.500000 -2.142255 -2.142255
91.550000 -2.142255 -2.142255
91.600000 -2.142254 -2.142255
91.650000 -2.142254 -2.142255
91.700000 -2.142254 -2.142255
91.750000 -2.142254 -2.142255
91.800000 -2.142254 -2.142255
91.850000 -2.142254 -2.142255
91.900000 -2.142254 -2.142255
91.950000 -2.142254 -2.142255
92.000000 -2.142254 -2.142255
92.050000 -2.142254 -2.142255
92.100000 -2.142254 -2.142255
92.150000 -2.142254 -2.142255
92.200000 -2.142254 -2.142255
92.250000 -2.142254 -2.142255
92.300000 -2.142254 -2.142255
92.350000 -2.142254 -2.142255
92.400000 -2.142254 -2.142255
92.450000 -2.142254 -2.142255
92.500000 -2.142255 -2.142255
92.550000 -2.142255 -2.142255
92.600000 -2.142255 -2.142255
92.650000 -2.142255 -2.142255
92.700000 -2.142255 -2.142255
92.750000 -2.142255 -2.142255
92.800000 -2.142255 -2.142255
92.850000 -2.142255 -2.142255
92.900000 -2.142255 -2.142255
92.950000 -2.142255 -2.142255
93.000000 -2.142255 -2.142255
93.050000 -2.142255 -2.142255
93.100000 -2.142255 -2.142255
93.150000 -2.142255 -2.142255
93.200000 -2.142255 -2.142255
93.250000 -2.142255 -2.142255
93.300000 -2.142255 -2.142255
93.350000 -2.142255 -2.142255
93.400000 -2.142255 -2.142255
93.450000 -2.142255 -2.142255
93.500000 -2.142255 -2.142255
93.550000 -2.142255 -2.142255
93.600000 -2.142254 -2.142255
93.650000 -2.142254 -2.142255
93.700000 -2.142254 -2.142255
93.750000 -2.142254 -2.142255
93.800000 -2.142254 -2.142255
93.850000 -2.142254 -2.142255
93.900000 -2.142254 -2.142255
93.950000 -2.142254 -2.142255
94.000000 -2.142254 -2.142255
94.050000 -2.142254 -2.142255
94.100000 -2.142254 -2.142255
94.150000 -2.142254 -2.142255
94.200000 -2.142254 -2.142255
94.250000 -2.142254 -2.142255
94.300000 -2.142254 -2.142255
94.350000 -2.142254 -2.142255
94.400000 -2.142254 -2.142255
94.450000 -2.142255 -2.142255
94.500000 -2.142255 -2.142255
94.550000 -2.142255 -2.142255
94.600000 -2.142255 -2.142255
94.650000 -2.142255 -2.142255
94.700000 -2.142255 -2.142255
94.750000 -2.142255 -2.142255
94.800000 -2.142255 -2.142255
94.850000 -2.142255 -2.142255
94.900000 -2.142255 -2.142255
94.950000 -2.142255 -2.142255
95.000000 -2.142255 -2.142255
95.050000 -2.142255 -2.142255
95.100000 -2.142255 -2.142255
95.150000 -2.142255 -2.142255
95.200000 -2.142255 -2.142255
95.250000 -2.142255 -2.142255
95.300000 -2.142255 -2.142255
95.350000 -2.142255 -2.142255
95.400000 -2.142255 -2.142255
95.450000 -2.142255 -2.142255
95.500000 -2.142255 -2.142255
95.550000 -2.142255 -2.142255
95.600000 -2.142254 -2.142255
95.650000 -2.142254 -2.142255
95.700000 -2.142254 -2.142255
95.750000 -2.142254 -2.142255
95.800000 -2.142254 -2.142255
95.850000 -2.142254 -2.142255
95.900000 -2.142254 -2.142255
95.950000 -2.142254 -2.142255
96.000000 -2.142254 -2.142255
96.050000 -2.142254 -2.142255
96.100000 -2.142254 -2.142255
96.150000 -2.142254 -2.142255
96.200000 -2.142254 -2.142255
96.250000 -2.142254 -2.142255
96.300000 -2.142254 -2.142255
96.350000 -2.142255 -2.142255
96.400000 -2.142255 -2.142255
96.450000 -2.142255 -2.142255
96.500000 -2.142255 -2.142255
96.550000 -2.142255 -2.142255
96.600000 -2.142255 -2.142255
96.650000 -2.142255 -2.142255
96.700000 -2.142255 -2.142255
96.750000 -2.142255 -2.142255
96.800000 -2.142255 -2.142255
96.850000 -2.142255 -2.142255
96.900000 -2.142255 -2.142255
96.950000 -2.142255 -2.142255
97.000000 -2.142255 -2.142255
97.050000 -2.142255 -2.142255
97.100000 -2.142255 -2.142255
97.150000 -2.142255 -2.142255
97.200000 -2.142255 -2.142255
97.250000 -2.142255 -2.142255
97.300000 -2.142255 -2.142255
97.350000 -2.142255 -2.142255
97.400000 -2.142255 -2.142255
97.450000 -2.142255 -2.142255
97.500000 -2.142255 -2.142255
97.550000 -2.142255 -2.142255
97.600000 -2.142254 -2.142255
97.650000 -2.142254 -2.142255
97.700000 -2.142254 -2.142255
97.750000 -2.142254 -2.142255
97.800000 -2.142254 -2.142255
97.850000 -2.142254 -2.142255
97.900000 -2.142254 -2.142255
97.950000 -2.142254 -2.142255
98.000000 -2.142254 -2.142255
98.050000 -2.142254 -2.142255
98.100000 -2.142254 -2.142255
98.150000 -2.142254 -2.142255
98.200000 -2.142254 -2.142255
98.250000 -2.142255 -2.142255
98.300000 -2.142255 -2.142255
98.350000 -2.142255 -2.142255
98.400000 -2.142255 -2.142255
98.450000 -2.142255 -2.142255
98.500000 -2.142255 -2.142255
98.550000 -2.142255 -2.142255
98.600000 -2.142255 -2.142255
98.650000 -2.142255 -2.142255
98.700000 -2.142255 -2.142255
98.750000 -2.142255 -2.142255
98.800000 -2.142255 -2.142255
98.850000 -2.142255 -2.142255
98.900000 -2.142255 -2.142255
98.950000 -2.142255 -2.142255
99.000000 -2.142255 -2.142255
99.050000 -2.142255 -2.142255
99.100000 -2.142255 -2.142255
99.150000 -2.142255 -2.142255
99.200000 -2.142255 -2.142255
99.250000 -2.142255 -2.142255
99.300000 -2.142255 -2.142255
99.350000 -2.142255 -2.142255
99.400000 -2.142255 -2.142255
99.450000 -2.142255 -2.142255
99.500000 -2.142255 -2.142255
99.550000 -2.142255 -2.142255
99.600000 -2.142254 -2.142255
99.650000 -2.142254 -2.142255
99.700000 -2.142254 -2.142255
99.750000 -2.142254 -2.142255
99.800000 -2.142254 -2.142255
99.850000 -2.142254 -2.142255
99.900000 -2.142254 -2.142255
99.950000 -2.142254 -2.142255
100.000000 -2.142254 -2.142255
100.050000 -2.142254 -2.142255
100.100000 -2.142255 -2.142255
100.150000 -2.142255 -2.142255
100.200000 -2.142255 -2.142255
100.250000 -2.142255 -2.142255
100.300000 -2.142255 -2.142255
100.350000 -2.142255 -2.142255
100.400000 -2.142255 -2.142255
100.450000 -2.142255 -2.142255
100.500000 -2.142255 -2.142255
100.550000 -2.142255 -2.142255
100.600000 -2.142255 -2.142255
100.650000 -2.142255 -2.142255
100.700000 -2.142255 -2.142255
100.750000 -2.142255 -2.142255
100.800000 -2.142255 -2.142255
100.850000 -2.142255 -2.142255
100.900000 -2.142255 -2.142255
100.950000 -2.142255 -2.142255
101.000000 -2.142255 -2.142255
101.050000 -2.142255 -2.142255
101.100000 -2.142255 -2.142255
101.150000 -2.142255 -2.142255
101.200000 -2.142255 -2.142255
101.250000 -2.142255 -2.142255
101.300000 -2.142255 -2.142255
101.350000 -2.142255 -2.142255
101.400000 -2.142255 -2.142255
101.450000 -2.142255 -2.142255
101.500000 -2.142255 -2.142255
101.550000 -2.142255 -2.142255
101.600000 -2.142255 -2.142255
101.650000 -2.142255 -2.142255
101.700000 -2.142255 -2.142255
101.750000 -2.142255 -2.142255
101.800000 -2.142255 -2.142255
101.850000 -2.142255 -2.142255
101.900000 -2.142255 -2.142255
101.950000 -2.142255 -2.142255
102.000000 -2.142255 -2.142255
102.050000 -2.142255 -2.142255
102.100000 -2.142255 -2.142255
102.150000 -2.142255 -2.142255
102.200000 -2.142255 -2.142255
102.250000 -2.142255 -2.142255
102.300000 -2.142255 -2.142255
102.350000 -2.142255 -2.142255
102.400000 -2.142255 -2.142255
102.450000 -2.142255 -2.142255
102.500000 -2.142255 -2.142255
102.550000 -2.142255 -2.142255
102.600000 -2.142255 -2.142255
102.650000 -2.142255 -2.142255
102.700000 -2.142255 -2.142255
102.750000 -2.142255 -2.142255
102.800000 -2.142255 -2.142255
102.850000 -2.142255 -2.142255
102.900000 -2.142255 -2.142255
102.950000 -2.142255 -2.142255
103.000000 -2.142255 -2.142255
103.050000 -2.142255 -2.142255
103.100000 -2.142255 -2.142255
103.150000 -2.142255 -2.142255
103.200000 -2.142255 -2.142255
103.250000 -2.142255 -2.142255
103.300000 -2.142255 -2.142255
103.350000 -2.142255 -2.142255
103.400000 -2.142255 -2.142255
103.450000 -2.142255 -2.142255
103.500000 -2.142255 -2.142255
103.550000 -2.142255 -2.142255
103.600000 -2.142255 -2.142255
103.650000 -2.142255 -2.142255
103.700000 -2.142255 -2.142255
103.750000 -2.142255 -2.142255
103.800000 -2.142255 -2.142255
103.850000 -2.142255 -2.142255
103.900000 -2.142255 -2.142255
103.950000 -2.142255 -2.142255
104.000000 -2.142255 -2.142255
104.050000 -2.142255 -2.142255
104.100000 -2.142255 -2.142255
104.150000 -2.142255 -2.142255
104.200000 -2.142255 -2.142255
104.250000 -2.142255 -2.142255
104.300000 -2.142255 -2.142255
104.350000 -2.142255 -2.142255
104.400000 -2.142255 -2.142255
104.450000 -2.142255 -2.142255
104.500000 -2.142255 -2.142255
104.550000 -2.142255 -2.142255
104.600000 -2.142255 -2.142255
104.650000 -2.142255 -2.142255
104.700000 -2.142255 -2.142255
104.750000 -2.142255 -2.142255
104.800000 -2.142255 -2.142255
104.850000 -2.142255 -2.142255
104.900000 -2.142255 -2.142255
104.950000 -2.142255 -2.142255
105.000000 -2.142255 -2.142255
105.050000 -2.142255 -2.142255
105.100000 -2.142255 -2.142255
105.150000 -2.142255 -2.142255
105.200000 -2.142255 -2.142255
105.250000 -2.142255 -2.142255
105.300000 -2.142255 -2.142255
105.350000 -2.142255 -2.142255
105.400000 -2.142255 -2.142255
105.450000 -2.142255 -2.142255
105.500000 -2.142255 -2.142255
105.550000 -2.142255 -2.142255
105.600000 -2.142255 -2.142255
105.650000 -2.142255 -2.142255
105.700000 -2.142255 -2.142255
105.750000 -2.142255 -2.142255
105.800000 -2.142255 -2.142255
105.850000 -2.142255 -2.142255
105.900000 -2.142255 -2.142255
105.950000 -2.142255 -2.142255
106.000000 -2.142255 -2.142255
106.050000 -2.142255 -2.142255
106.100000 -2.142255 -2.142255
106.150000 -2.142255 -2.142255
106.200000 -2.142255 -2.142255
106.250000 -2.142255 -2.142255
106.300000 -2.142255 -2.142255
106.350000 -2.142255 -2.142255
106.400000 -2.142255 -2.142255
106.450000 -2.142255 -2.142255
106.500000 -2.142255 -2.142255
106.550000 -2.142255 -2.142255
106.600000 -2.142255 -2.142255
106.650000 -2.142255 -2.142255
106.700000 -2.142255 -2.142255
106.750000 -2.142255 -2.142255
106.800000 -2.142255 -2.142255
106.850000 -2.142255 -2.142255
106.900000 -2.142255 -2.142255
106.950000 -2.142255 -2.142255
107.000000 -2.142255 -2.142255
107.050000 -2.142255 -2.142255
107.100000 -2.142255 -2.142255
107.150000 -2.142255 -2.142255
107.200000 -2.142255 -2.142255
107.250000 -2.142255 -2.142255
107.300000 -2.142255 -2.142255
107.350000 -2.142255 -2.142255
107.400000 -2.142255 -2.142255
107.450000 -2.142255 -2.142255
107.500000 -2.142255 -2.142255
107.550000 -2.142255 -2.142255
107.600000 -2.142255 -2.142255
107.650000 -2.142255 -2.142255
107.700000 -2.142255 -2.142255
107.750000 -2.142255 -2.142255
107.800000 -2.142255 -2.142255
107.850000 -2.142255 -2.142255
107.900000 -2.142255 -2.142255
107.950000 -2.142255 -2.142255
108.000000 -2.142255 -2.142255
108.050000 -2.142255 -2.142255
108.100000 -2.142255 -2.142255
108.150000 -2.142255 -2.142255
108.200000 -2.142255 -2.142255
108.250000 -2.142255 -2.142255
108.300000 -2.142255 -2.142255
108.350000 -2.142255 -2.142255
108.400000 -2.142255 -2.142255
108.450000 -2.142255 -2.142255
108.500000 -2.142255 -2.142255
108.550000 -2.142255 -2.142255
108.600000 -2.142255 -2.142255
108.650000 -2.142255 -2.142255
108.700000 -2.142255 -2.142255
108.750000 -2.142255 -2.142255
108.800000 -2.142255 -2.142255
108.850000 -2.142255 -2.142255
108.900000 -2.142255 -2.142255
108.950000 -2.142255 -2.142255
109.000000 -2.142255 -2.142255
109.050000 -2.142255 -2.142255
109.100000 -2.142255 -2.142255
109.150000 -2.142255 -2.142255
109.200000 -2.142255 -2.142255
109.250000 -2.142255 -2.142255
109.300000 -2.142255 -2.142255
109.350000 -2.142255 -2.142255
109.400000 -2.142255 -2.142255
109.450000 -2.142255 -2.142255
109.500000 -2.142255 -2.142255
109.550000 -2.142255 -2.142255
109.600000 -2.142255 -2.142255
109.650000 -2.142255 -2.142255
109.700000 -2.142255 -2.142255
109.750000 -2.142255 -2.142255
109.800000 -2.142255 -2.142255
109.850000 -2.142255 -2.142255
109.900000 -2.142255 -2.142255
109.950000 -2.142255 -2.142255
110.000000 -2.142255 -2.142255
110.050000 -2.142255 -2.142255
110.100000 -2.142255 -2.142255
110.150000 -2.142255 -2.142255
110.200000 -2.142255 -2.142255
110.250000 -2.142255 -2.142255
110.300000 -2.142255 -2.142255
110.350000 -2.142255 -2.142255
110.400000 -2.142255 -2.142255
110.450000 -2.142255 -2.142255
110.500000 -2.142255 -2.142255
110.550000 -2.142255 -2.142255
110.600000 -2.142255 -2.142255
110.650000 -2.142255 -2.142255
110.700000 -2.142255 -2.142255
110.750000 -2.142255 -2.142255
110.800000 -2.142255 -2.142255
110.850000 -2.142255 -2.142255
110.900000 -2.142255 -2.142255
110.950000 -2.142255 -2.142255
111.000000 -2.142255 -2.142255
111.050000 -2.142255 -2.142255
111.100000 -2.142255 -2.142255
111.150000 -2.142255 -2.142255
111.200000 -2.142255 -2.142255
111.250000 -2.142255 -2.142255
111.300000 -2.142255 -2.142255
111.350000 -2.142255 -2.142255
111.400000 -2.142255 -2.142255
111.450000 -2.142255 -2.142255
111.500000 -2.142255 -2.142255
111.550000 -2.142255 -2.142255
111.600000 -2.142255 -2.142255
111.650000 -2.142255 -2.142255
111.700000 -2.142255 -2.142255
111.750000 -2.142255 -2.142255
111.800000 -2.142255 -2.142255
111.850000 -2.142255 -2.142255
111.900000 -2.142255 -2.142255
111.950000 -2.142255 -2.142255
112.000000 -2.142255 -2.142255
112.050000 -2.142255 -2.142255
112.100000 -2.142255 -2.142255
112.150000 -2.142255 -2.142255
112.200000 -2.142255 -2.142255
112.250000 -2.142255 -2.142255
112.300000 -2.142255 -2.142255
112.350000 -2.142255 -2.142255
112.400000 -2.142255 -2.142255
112.450000 -2.142255 -2.142255
112.500000 -2.142255 -2.142255
112.550000 -2.142255 -2.142255
112.600000 -2.142255 -2.142255
112.650000 -2.142255 -2.142255
112.700000 -2.142255 -2.142255
112.750000 -2.142255 -2.142255
112.800000 -2.142255 -2.142255
112.850000 -2.142255 -2.142255
112.900000 -2.142255 -2.142255
112.950000 -2.142255 -2.142255
113.000000 -2.142255 -2.142255
113.050000 -2.142255 -2.142255
113.100000 -2.142255 -2.142255
113.150000 -2.142255 -2.142255
113.200000 -2.142255 -2.142255
113.250000 -2.142255 -2.142255
113.300000 -2.142255 -2.142255
113.350000 -2.142255 -2.142255
113.400000 -2.142255 -2.142255
113.450000 -2.142255 -2.142255
113.500000 -2.142255 -2.142255
113.550000 -2.142255 -2.142255
113.600000 -2.142255 -2.142255
113.650000 -2.142255 -2.142255
113.700000 -2.142255 -2.142255
113.750000 -2.142255 -2.142255
113.800000 -2.142255 -2.142255
113.850000 -2.142255 -2.142255
113.900000 -2.142255 -2.142255
113.950000 -2.142255 -2.142255
114.000000 -2.142255 -2.142255
114.050000 -2.142255 -2.142255
114.100000 -2.142255 -2.142255
114.150000 -2.142255 -2.142255
114.200000 -2.142255 -2.142255
114.250000 -2.142255 -2.142255
114.300000 -2.142255 -2.142255
114.350000 -2.142255 -2.142255
114.400000 -2.142255 -2.142255
114.450000 -2.142255 -2.142255
114.500000 -2.142255 -2.142255
114.550000 -2.142255 -2.142255
114.600000 -2.142255 -2.142255
114.650000 -2.142255 -2.142255
114.700000 -2.142255 -2.142255
114.750000 -2.142255 -2.142255
114.800000 -2.142255 -2.142255
114.850000 -2.142255 -2.142255
114.900000 -2.142255 -2.142255
114.950000 -2.142255 -2.142255
115.000000 -2.142255 -2.142255
115.050000 -2.142255 -2.142255
115.100000 -2.142255 -2.142255
115.150000 -2.142255 -2.142255
115.200000 -2.142255 -2.142255
115.250000 -2.142255 -2.142255
115.300000 -2.142255 -2.142255
115.350000 -2.142255 -2.142255
115.400000 -2.142255 -2.142255
115.450000 -2.142255 -2.142255
115.500000 -2.142255 -2.142255
115.550000 -2.142255 -2.142255
115.600000 -2.142255 -2.142255
115.650000 -2.142255 -2.142255
115.700000 -2.142255 -2.142255
115.750000 -2.142255 -2.142255
115.800000 -2.142255 -2.142255
115.850000 -2.142255 -2.142255
115.900000 -2.142255 -2.142255
115.950000 -2.142255 -2.142255
116.000000 -2.142255 -2.142255
116.050000 -2.142255 -2.142255
116.100000 -2.142255 -2.142255
116.150000 -2.142255 -2.142255
116.200000 -2.142255 -2.142255
116.250000 -2.142255 -2.142255
116.300000 -2.142255 -2.142255
116.350000 -2.142255 -2.142255
116.400000 -2.142255 -2.142255
116.450000 -2.142255 -2.142255
116.500000 -2.142255 -2.142255
116.550000 -2.142255 -2.142255
116.600000 -2.142255 -2.142255
116.650000 -2.142255 -2.142255
116.700000 -2.142255 -2.142255
116.750000 -2.142255 -2.142255
116.800000 -2.142255 -2.142255
116.850000 -2.142255 -2.142255
116.900000 -2.142255 -2.142255
116.950000 -2.142255 -2.142255
117.000000 -2.142255 -2.142255
117.050000 -2.142255 -2.142255
117.100000 -2.142255 -2.142255
117.150000 -2.142255 -2.142255
117.200000 -2.142255 -2.142255
117.250000 -2.142255 -2.142255
117.300000 -2.142255 -2.142255
117.350000 -2.142255 -2.142255
117.400000 -2.142255 -2.142255
117.450000 -2.142255 -2.142255
117.500000 -2.142255 -2.142255
117.550000 -2.142255 -2.142255
117.600000 -2.142255 -2.142255
117.650000 -2.142255 -2.142255
117.700000 -2.142255 -2.142255
117.750000 -2.142255 -2.142255
117.800000 -2.142255 -2.142255
117.850000 -2.142255 -2.142255
117.900000 -2.142255 -2.142255
117.950000 -2.142255 -2.142255
118.000000 -2.142255 -2.142255
118.050000 -2.142255 -2.142255
118.100000 -2.142255 -2.142255
118.150000 -2.142255 -2.142255
118.200000 -2.142255 -2.142255
118.250000 -2.142255 -2.142255
118.300000 -2.142255 -2.142255
118.350000 -2.142255 -2.142255
118.400000 -2.142255 -2.142255
118.450000 -2.142255 -2.142255
118.500000 -2.142255 -2.142255
118.550000 -2.142255 -2.142255
118.600000 -2.142255 -2.142255
118.650000 -2.142255 -2.142255
118.700000 -2.142255 -2.142255
118.750000 -2.142255 -2.142255
118.800000 -2.142255 -2.142255
118.850000 -2.142255 -2.142255
118.900000 -2.142255 -2.142255
118.950000 -2.142255 -2.142255
119.000000 -2.142255 -2.142255
119.050000 -2.142255 -2.142255
119.100000 -2.142255 -2.142255
119.150000 -2.142255 -2.142255
119.200000 -2.142255 -2.142255
119.250000 -2.142255 -2.142255
119.300000 -2.142255 -2.142255
119.350000 -2.142255 -2.142255
119.400000 -2.142255 -2.142255
119.450000 -2.142255 -2.142255
119.500000 -2.142255 -2.142255
119.550000 -2.142255 -2.142255
119.600000 -2.142255 -2.142255
119.650000 -2.142255 -2.142255
119.700000 -2.142255 -2.142255
119.750000 -2.142255 -2.142255
119.800000 -2.142255 -2.142255
119.850000 -2.142255 -2.142255
119.900000 -2.142255 -2.142255
119.950000 -2.142255 -2.142255
120.000000 -2.142255 -2.142255
120.050000 -2.142255 -2.142255
120.100000 -2.142255 -2.142255
120.150000 -2.142255 -2.142255
120.200000 -2.142255 -2.142255
120.250000 -2.142255 -2.142255
120.300000 -2.142255 -2.142255
120.350000 -2.142255 -2.142255
120.400000 -2.142255 -2.142255
120.450000 -2.142255 -2.142255
120.500000 -2.142255 -2.142255
120.550000 -2.142255 -2.142255
120.600000 -2.142255 -2.142255
120.650000 -2.142255 -2.142255
120.700000 -2.142255 -2.142255
120.750000 -2.142255 -2.142255
120.800000 -2.142255 -2.142255
120.850000 -2.142255 -2.142255
120.900000 -2.142255 -2.142255
120.950000 -2.142255 -2.142255
121.000000 -2.142255 -2.142255
121.050000 -2.142255 -2.142255
121.100000 -2.142255 -2.142255
121.150000 -2.142255 -2.142255
121.200000 -2.142255 -2.142255
121.250000 -2.142255 -2.142255
121.300000 -2.142255 -2.142255
121.350000 -2.142255 -2.142255
121.400000 -2.142255 -2.142255
121.450000 -2.142255 -2.142255
121.500000 -2.142255 -2.142255
121.550000 -2.142255 -2.142255
121.600000 -2.142255 -2.142255
121.650000 -2.142255 -2.142255
121.700000 -2.142255 -2.142255
121.750000 -2.142255 -2.142255
121.800000 -2.142255 -2.142255
121.850000 -2.142255 -2.142255
121.900000 -2.142255 -2.142255
121.950000 -2.142255 -2.142255
122.000000 -2.142255 -2.142255
122.050000 -2.142255 -2.142255
122.100000 -2.142255 -2.142255
122.150000 -2.142255 -2.142255
122.200000 -2.142255 -2.142255
122.250000 -2.142255 -2.142255
122.300000 -2.142255 -2.142255
122.350000 -2.142255 -2.142255
122.400000 -2.142255 -2.142255
122.450000 -2.142255 -2.142255
122.500000 -2.142255 -2.142255
122.550000 -2.142255 -2.142255
122.600000 -2.142255 -2.142255
122.650000 -2.142255 -2.142255
122.700000 -2.142255 -2.142255
122.750000 -2.142255 -2.142255
122.800000 -2.142255 -2.142255
122.850000 -2.142255 -2.142255
122.900000 -2.142255 -2.142255
122.950000 -2.142255 -2.142255
123.000000 -2.142255 -2.142255
123.050000 -2.142255 -2.142255
123.100000 -2.142255 -2.142255
123.150000 -2.142255 -2.142255
123.200000 -2.142255 -2.142255
123.250000 -2.142255 -2.142255
123.300000 -2.142255 -2.142255
123.350000 -2.142255 -2.142255
123.400000 -2.142255 -2.142255
123.450000 -2.142255 -2.142255
123.500000 -2.142255 -2.142255
123.550000 -2.142255 -2.142255
123.600000 -2.142255 -2.142255
123.650000 -2.142255 -2.142255
123.700000 -2.142255 -2.142255
123.750000 -2.142255 -2.142255
123.800000 -2.142255 -2.142255
123.850000 -2.142255 -2.142255
123.900000 -2.142255 -2.142255
123.950000 -2.142255 -2.142255
124.000000 -2.142255 -2.142255
124.050000 -2.142255 -2.142255
124.100000 -2.142255 -2.142255
124.150000 -2.142255 -2.142255
124.200000 -2.142255 -2.142255
124.250000 -2.142255 -2.142255
124.300000 -2.142255 -2.142255
124.350000 -2.142255 -2.142255
124.400000 -2.142255 -2.142255
124.450000 -2.142255 -2.142255
124.500000 -2.142255 -2.142255
124.550000 -2.142255 -2.142255
124.600000 -2.142255 -2.142255
124.650000 -2.142255 -2.142255
124.700000 -2.142255 -2.142255
124.750000 -2.142255 -2.142255
124.800000 -2.142255 -2.142255
124.850000 -2.142255 -2.142255
124.900000 -2.142255 -2.142255
124.950000 -2.142255 -2.142255
125.000000 -2.142255 -2.142255
125.050000 -2.142255 -2.142255
125.100000 -2.142255 -2.142255
125.150000 -2.142255 -2.142255
125.200000 -2.142255 -2.142255
125.250000 -2.142255 -2.142255
125.300000 -2.142255 -2.142255
125.350000 -2.142255 -2.142255
125.400000 -2.142255 -2.142255
125.450000 -2.142255 -2.142255
125.500000 -2.142255 -2.142255
125.550000 -2.142255 -2.142255
125.600000 -2.142255 -2.142255
125.650000 -2.142255 -2.142255
125.700000 -2.142255 -2.142255
125.750000 -2.142255 -2.142255
125.800000 -2.142255 -2.142255
125.850000 -2.142255 -2.142255
125.900000 -2.142255 -2.142255
125.950000 -2.142255 -2.142255
126.000000 -2.142255 -2.142255
126.050000 -2.142255 -2.142255
126.100000 -2.142255 -2.142255
126.150000 -2.142255 -2.142255
126.200000 -2.142255 -2.142255
126.250000 -2.142255 -2.142255
126.300000 -2.142255 -2.142255
126.350000 -2.142255 -2.142255
126.400000 -2.142255 -2.142255
126.450000 -2.142255 -2.142255
126.500000 -2.142255 -2.142255
126.550000 -2.142255 -2.142255
126.600000 -2.142255 -2.142255
126.650000 -2.142255 -2.142255
126.700000 -2.142255 -2.142255
126.750000 -2.142255 -2.142255
126.800000 -2.142255 -2.142255
126.850000 -2.142255 -2.142255
126.900000 -2.142255 -2.142255
126.950000 -2.142255 -2.142255
127.000000 -2.142255 -2.142255
127.050000 -2.142255 -2.142255
127.100000 -2.142255 -2.142255
127.150000 -2.142255 -2.142255
127.200000 -2.142255 -2.142255
127.250000 -2.142255 -2.142255
127.300000 -2.142255 -2.142255
127.350000 -2.142255 -2.142255
127.400000 -2.142255 -2.142255
127.450000 -2.142255 -2.142255
127.500000 -2.142255 -2.142255
127.550000 -2.142255 -2.142255
127.600000 -2.142255 -2.142255
127.650000 -2.142255 -2.142255
127.700000 -2.142255 -2.142255
127.750000 -2.142255 -2.142255
127.800000 -2.142255 -2.142255
127.850000 -2.142255 -2.142255
127.900000 -2.142255 -2.142255
127.950000 -2.142255 -2.142255
128.000000 -2.142255 -2.142255
128.050000 -2.142255 -2.142255
128.100000 -2.142255 -2.142255
128.150000 -2.142255 -2.142255
128.200000 -2.142255 -2.142255
128.250000 -2.142255 -2.142255
128.300000 -2.142255 -2.142255
128.350000 -2.142255 -2.142255
128.400000 -2.142255 -2.142255
128.450000 -2.142255 -2.142255
128.500000 -2.142255 -2.142255
128.550000 -2.142255 -2.142255
128.600000 -2.142255 -2.142255
128.650000 -2.142255 -2.142255
128.700000 -2.142255 -2.142255
128.750000 -2.142255 -2.142255
128.800000 -2.142255 -2.142255
128.850000 -2.142255 -2.142255
128.900000 -2.142255 -2.142255
128.950000 -2.142255 -2.142255
129.000000 -2.142255 -2.142255
129.050000 -2.142255 -2.142255
129.100000 -2.142255 -2.142255
129.150000 -2.142255 -2.142255
129.200000 -2.142255 -2.142255
129.250000 -2.142255 -2.142255
129.300000 -2.142255 -2.142255
129.350000 -2.142255 -2.142255
129.400000 -2.142255 -2.142255
129.450000 -2.142255 -2.142255
129.500000 -2.142255 -2.142255
129.550000 -2.142255 -2.142255
129.600000 -2.142255 -2.142255
129.650000 -2.142255 -2.142255
129.700000 -2.142255 -2.142255
129.750000 -2.142255 -2.142255
129.800000 -2.142255 -2.142255
129.850000 -2.142255 -2.142255
129.900000 -2.142255 -2.142255
129.950000 -2.142255 -2.142255
130.000000 -2.142255 -2.142255
130.050000 -2.142255 -2.142255
130.100000 -2.142255 -2.142255
130.150000 -2.142255 -2.142255
130.200000 -2.142255 -2.142255
130.250000 -2.142255 -2.142255
130.300000 -2.142255 -2.142255
130.350000 -2.142255 -2.142255
130.400000 -2.142255 -2.142255
130.450000 -2.142255 -2.142255
130.500000 -2.142255 -2.142255
130.550000 -2.142255 -2.142255
130.600000 -2.142255 -2.142255
130.650000 -2.142255 -2.142255
130.700000 -2.142255 -2.142255
130.750000 -2.142255 -2.142255
130.800000 -2.142255 -2.142255
130.850000 -2.142255 -2.142255
130.900000 -2.142255 -2.142255
130.950000 -2.142255 -2.142255
131.000000 -2.142255 -2.142255
131.050000 -2.142255 -2.142255
131.100000 -2.142255 -2.142255
131.150000 -2.142255 -2.142255
131.200000 -2.142255 -2.142255
131.250000 -2.142255 -2.142255
131.300000 -2.142255 -2.142255
131.350000 -2.142255 -2.142255
131.400000 -2.142255 -2.142255
131.450000 -2.142255 -2.142255
131.500000 -2.142255 -2.142255
131.550000 -2.142255 -2.142255
131.600000 -2.142255 -2.142255
131.650000 -2.142255 -2.142255
131.700000 -2.142255 -2.142255
131.750000 -2.142255 -2.142255
131.800000 -2.142255 -2.142255
131.850000 -2.142255 -2.142255
131.900000 -2.142255 -2.142255
131.950000 -2.142255 -2.142255
132.000000 -2.142255 -2.142255
132.050000 -2.142255 -2.142255
132.100000 -2.142255 -2.142255
132.150000 -2.142255 -2.142255
132.200000 -2.142255 -2.142255
132.250000 -2.142255 -2.142255
132.300000 -2.142255 -2.142255
132.350000 -2.142255 -2.142255
132.400000 -2.142255 -2.142255
132.450000 -2.142255 -2.142255
132.500000 -2.142255 -2.142255
132.550000 -2.142255 -2.142255
132.600000 -2.142255 -2.142255
132.650000 -2.142255 -2.142255
132.700000 -2.142255 -2.142255
132.750000 -2.142255 -2.142255
132.800000 -2.142255 -2.142255
132.850000 -2.142255 -2.142255
132.900000 -2.142255 -2.142255
132.950000 -2.142255 -2.142255
133.000000 -2.142255 -2.142255
133.050000 -2.142255 -2.142255
133.100000 -2.142255 -2.142255
133.150000 -2.142255 -2.142255
133.200000 -2.142255 -2.142255
133.250000 -2.142255 -2.142255
133.300000 -2.142255 -2.142255
133.350000 -2.142255 -2.142255
133.400000 -2.142255 -2.142255
133.450000 -2.142255 -2.142255
133.500000 -2.142255 -2.142255
133.550000 -2.142255 -2.142255
133.600000 -2.142255 -2.142255
133.650000 -2.142255 -2.142255
133.700000 -2.142255 -2.142255
133.750000 -2.142255 -2.142255
133.800000 -2.142255 -2.142255
133.850000 -2.142255 -2.142255
133.900000 -2.142255 -2.142255
133.950000 -2.142255 -2.142255
134.000000 -2.142255 -2.142255
134.050000 -2.142255 -2.142255
134.100000 -2.142255 -2.142255
134.150000 -2.142255 -2.142255
134.200000 -2.142255 -2.142255
134.250000 -2.142255 -2.142255
134.300000 -2.142255 -2.142255
134.350000 -2.142255 -2.142255
134.400000 -2.142255 -2.142255
134.450000 -2.142255 -2.142255
134.500000 -2.142255 -2.142255
134.550000 -2.142255 -2.142255
134.600000 -2.142255 -2.142255
134.650000 -2.142255 -2.142255
134.700000 -2.142255 -2.142255
134.750000 -2.142255 -2.142255
134.800000 -2.142255 -2.142255
134.850000 -2.142255 -2.142255
134.900000 -2.142255 -2.142255
134.950000 -2.142255 -2.142255
135.000000 -2.142255 -2.142255
135.050000 -2.142255 -2.142255
135.100000 -2.142255 -2.142255
135.150000 -2.142255 -2.142255
135.200000 -2.142255 -2.142255
135.250000 -2.142255 -2.142255
135.300000 -2.142255 -2.142255
135.350000 -2.142255 -2.142255
135.400000 -2.142255 -2.142255
135.450000 -2.142255 -2.142255
135.500000 -2.142255 -2.142255
135.550000 -2.142255 -2.142255
135.600000 -2.142255 -2.142255
135.650000 -2.142255 -2.142255
135.700000 -2.142255 -2.142255
135.750000 -2.142255 -2.142255
135.800000 -2.142255 -2.142255
135.850000 -2.142255 -2.142255
135.900000 -2.142255 -2.142255
135.950000 -2.142255 -2.142255
136.000000 -2.142255 -2.142255
136.050000 -2.142255 -2.142255
136.100000 -2.142255 -2.142255
136.150000 -2.142255 -2.142255
136.200000 -2.142255 -2.142255
136.250000 -2.142255 -2.142255
136.300000 -2.142255 -2.142255
136.350000 -2.142255 -2.142255
136.400000 -2.142255 -2.142255
136.450000 -2.142255 -2.142255
136.500000 -2.142255 -2.142255
136.550000 -2.142255 -2.142255
136.600000 -2.142255 -2.142255
136.650000 -2.142255 -2.142255
136.700000 -2.142255 -2.142255
136.750000 -2.142255 -2.142255
136.800000 -2.142255 -2.142255
136.850000 -2.142255 -2.142255
136.900000 -2.142255 -2.142255
136.950000 -2.142255 -2.142255
137.000000 -2.142255 -2.142255
137.050000 -2.142255 -2.142255
137.100000 -2.142255 -2.142255
137.150000 -2.142255 -2.142255
137.200000 -2.142255 -2.142255
137.250000 -2.142255 -2.142255
137.300000 -2.142255 -2.142255
137.350000 -2.142255 -2.142255
137.400000 -2.142255 -2.142255
137.450000 -2.142255 -2.142255
137.500000 -2.142255 -2.142255
137.550000 -2.142255 -2.142255
137.600000 -2.142255 -2.142255
137.650000 -2.142255 -2.142255
137.700000 -2.142255 -2.142255
137.750000 -2.142255 -2.142255
137.800000 -2.142255 -2.142255
137.850000 -2.142255 -2.142255
137.900000 -2.142255 -2.142255
137.950000 -2.142255 -2.142255
138.000000 -2.142255 -2.142255
138.050000 -2.142255 -2.142255
138.100000 -2.142255 -2.142255
138.150000 -2.142255 -2.142255
138.200000 -2.142255 -2.142255
138.250000 -2.142255 -2.142255
138.300000 -2.142255 -2.142255
138.350000 -2.142255 -2.142255
138.400000 -2.142255 -2.142255
138.450000 -2.142255 -2.142255
138.500000 -2.142255 -2.142255
138.550000 -2.142255 -2.142255
138.600000 -2.142255 -2.142255
138.650000 -2.142255 -2.142255
138.700000 -2.142255 -2.142255
138.750000 -2.142255 -2.142255
138.800000 -2.142255 -2.142255
138.850000 -2.142255 -2.142255
138.900000 -2.142255 -2.142255
138.950000 -2.142255 -2.142255
139.000000 -2.142255 -2.142255
139.050000 -2.142255 -2.142255
139.100000 -2.142255 -2.142255
139.150000 -2.142255 -2.142255
139.200000 -2.142255 -2.142255
139.250000 -2.142255 -2.142255
139.300000 -2.142255 -2.142255
139.350000 -2.142255 -2.142255
139.400000 -2.142255 -2.142255
139.450000 -2.142255 -2.142255
139.500000 -2.142255 -2.142255
139.550000 -2.142255 -2.142255
139.600000 -2.142255 -2.142255
139.650000 -2.142255 -2.142255
139.700000 -2.142255 -2.142255
139.750000 -2.142255 -2.142255
139.800000 -2.142255 -2.142255
139.850000 -2.142255 -2.142255
139.900000 -2.142255 -2.142255
139.950000 -2.142255 -2.142255
140.000000 -2.142255 -2.142255
140.050000 -2.142255 -2.142255
140.100000 -2.142255 -2.142255
140.150000 -2.142255 -2.142255
140.200000 -2.142255 -2.142255
140.250000 -2.142255 -2.142255
140.300000 -2.142255 -2.142255
140.350000 -2.142255 -2.142255
140.400000 -2.142255 -2.142255
140.450000 -2.142255 -2.142255
140.500000 -2.142255 -2.142255
140.550000 -2.142255 -2.142255
140.600000 -2.142255 -2.142255
140.650000 -2.142255 -2.142255
140.700000 -2.142255 -2.142255
140.750000 -2.142255 -2.142255
140.800000 -2.142255 -2.142255
140.850000 -2.142255 -2.142255
140.900000 -2.142255 -2.142255
140.950000 -2.142255 -2.142255
141.000000 -2.142255 -2.142255
141.050000 -2.142255 -2.142255
141.100000 -2.142255 -2.142255
141.150000 -2.142255 -2.142255
141.200000 -2.142255 -2.142255
141.250000 -2.142255 -2.142255
141.300000 -2.142255 -2.142255
141.350000 -2.142255 -2.142255
141.400000 -2.142255 -2.142255
141.450000 -2.142255 -2.142255
141.500000 -2.142255 -2.142255
141.550000 -2.142255 -2.142255
141.600000 -2.142255 -2.142255
141.650000 -2.142255 -2.142255
141.700000 -2.142255 -2.142255
141.750000 -2.142255 -2.142255
141.800000 -2.142255 -2.142255
141.850000 -2.142255 -2.142255
141.900000 -2.142255 -2.142255
141.950000 -2.142255 -2.142255
142.000000 -2.142255 -2.142255
142.050000 -2.142255 -2.142255
142.100000 -2.142255 -2.142255
142.150000 -2.142255 -2.142255
142.200000 -2.142255 -2.142255
142.250000 -2.142255 -2.142255
142.300000 -2.142255 -2.142255
142.350000 -2.142255 -2.142255
142.400000 -2.142255 -2.142255
142.450000 -2.142255 -2.142255
142.500000 -2.142255 -2.142255
142.550000 -2.142255 -2.142255
142.600000 -2.142255 -2.142255
142.650000 -2.142255 -2.142255
142.700000 -2.142255 -2.142255
142.750000 -2.142255 -2.142255
142.800000 -2.142255 -2.142255
142.850000 -2.142255 -2.142255
142.900000 -2.142255 -2.142255
142.950000 -2.142255 -2.142255
143.000000 -2.142255 -2.142255
143.050000 -2.142255 -2.142255
143.100000 -2.142255 -2.142255
143.150000 -2.142255 -2.142255
143.200000 -2.142255 -2.142255
143.250000 -2.142255 -2.142255
143.300000 -2.142255 -2.142255
143.350000 -2.142255 -2.142255
143.400000 -2.142255 -2.142255
143.450000 -2.142255 -2.142255
143.500000 -2.142255 -2.142255
143.550000 -2.142255 -2.142255
143.600000 -2.142255 -2.142255
143.650000 -2.142255 -2.142255
143.700000 -2.142255 -2.142255
143.750000 -2.142255 -2.142255
143.800000 -2.142255 -2.142255
143.850000 -2.142255 -2.142255
143.900000 -2.142255 -2.142255
143.950000 -2.142255 -2.142255
144.000000 -2.142255 -2.142255
144.050000 -2.142255 -2.142255
144.100000 -2.142255 -2.142255
144.150000 -2.142255 -2.142255
144.200000 -2.142255 -2.142255
144.250000 -2.142255 -2.142255
144.300000 -2.142255 -2.142255
144.350000 -2.142255 -2.142255
144.400000 -2.142255 -2.142255
144.450000 -2.142255 -2.142255
144.500000 -2.142255 -2.142255
144.550000 -2.142255 -2.142255
144.600000 -2.142255 -2.142255
144.650000 -2.142255 -2.142255
144.700000 -2.142255 -2.142255
144.750000 -2.142255 -2.142255
144.800000 -2.142255 -2.142255
144.850000 -2.142255 -2.142255
144.900000 -2.142255 -2.142255
144.950000 -2.142255 -2.142255
145.000000 -2.142255 -2.142255
145.050000 -2.142255 -2.142255
145.100000 -2.142255 -2.142255
145.150000 -2.142255 -2.142255
145.200000 -2.142255 -2.142255
145.250000 -2.142255 -2.142255
145.300000 -2.142255 -2.142255
145.350000 -2.142255 -2.142255
145.400000 -2.142255 -2.142255
145.450000 -2.142255 -2.142255
145.500000 -2.142255 -2.142255
145.550000 -2.142255 -2.142255
145.600000 -2.142255 -2.142255
145.650000 -2.142255 -2.142255
145.700000 -2.142255 -2.142255
145.750000 -2.142255 -2.142255
145.800000 -2.142255 -2.142255
145.850000 -2.142255 -2.142255
145.900000 -2.142255 -2.142255
145.950000 -2.142255 -2.142255
146.000000 -2.142255 -2.142255
146.050000 -2.142255 -2.142255
146.100000 -2.142255 -2.142255
146.150000 -2.142255 -2.142255
146.200000 -2.142255 -2.142255
146.250000 -2.142255 -2.142255
146.300000 -2.142255 -2.142255
146.350000 -2.142255 -2.142255
146.400000 -2.142255 -2.142255
146.450000 -2.142255 -2.142255
146.500000 -2.142255 -2.142255
146.550000 -2.142255 -2.142255
146.600000 -2.142255 -2.142255
146.650000 -2.142255 -2.142255
146.700000 -2.142255 -2.142255
146.750000 -2.142255 -2.142255
146.800000 -2.142255 -2.142255
146.850000 -2.142255 -2.142255
146.900000 -2.142255 -2.142255
146.950000 -2.142255 -2.142255
147.000000 -2.142255 -2.142255
147.050000 -2.142255 -2.142255
147.100000 -2.142255 -2.142255
147.150000 -2.142255 -2.142255
147.200000 -2.142255 -2.142255
147.250000 -2.142255 -2.142255
147.300000 -2.142255 -2.142255
147.350000 -2.142255 -2.142255
147.400000 -2.142255 -2.142255
147.450000 -2.142255 -2.142255
147.500000 -2.142255 -2.142255
147.550000 -2.142255 -2.142255
147.600000 -2.142255 -2.142255
147.650000 -2.142255 -2.142255
147.700000 -2.142255 -2.142255
147.750000 -2.142255 -2.142255
147.800000 -2.142255 -2.142255
147.850000 -2.142255 -2.142255
147.900000 -2.142255 -2.142255
147.950000 -2.142255 -2.142255
148.000000 -2.142255 -2.142255
148.050000 -2.142255 -2.142255
148.100000 -2.142255 -2.142255
148.150000 -2.142255 -2.142255
148.200000 -2.142255 -2.142255
148.250000 -2.142255 -2.142255
148.300000 -2.142255 -2.142255
148.350000 -2.142255 -2.142255
148.400000 -2.142255 -2.142255
148.450000 -2.142255 -2.142255
148.500000 -2.142255 -2.142255
148.550000 -2.142255 -2.142255
148.600000 -2.142255 -2.142255
148.650000 -2.142255 -2.142255
148.700000 -2.142255 -2.142255
148.750000 -2.142255 -2.142255
148.800000 -2.142255 -2.142255
148.850000 -2.142255 -2.142255
148.900000 -2.142255 -2.142255
148.950000 -2.142255 -2.142255
149.000000 -2.142255 -2.142255
149.050000 -2.142255 -2.142255
149.100000 -2.142255 -2.142255
149.150000 -2.142255 -2.142255
149.200000 -2.142255 -2.142255
149.250000 -2.142255 -2.142255
149.300000 -2.142255 -2.142255
149.350000 -2.142255 -2.142255
149.400000 -2.142255 -2.142255
149.450000 -2.142255 -2.142255
149.500000 -2.142255 -2.142255
149.550000 -2.142255 -2.142255
149.600000 -2.142255 -2.142255
149.650000 -2.142255 -2.142255
149.700000 -2.142255 -2.142255
149.750000 -2.142255 -2.142255
149.800000 -2.142255 -2.142255
149.850000 -2.142255 -2.142255
149.900000 -2.142255 -2.142255
149.950000 -2.142255 -2.142255
150.000000 -2.142255 -2.142255
150.050000 -2.142255 -2.142255
150.100000 -2.142255 -2.142255
150.150000 -2.142255 -2.142255
150.200000 -2.142255 -2.142255
150.250000 -2.142255 -2.142255
150.300000 -2.142255 -2.142255
150.350000 -2.142255 -2.142255
150.400000 -2.142255 -2.142255
150.450000 -2.142255 -2.142255
150.500000 -2.142255 -2.142255
150.550000 -2.142255 -2.142255
150.600000 -2.142255 -2.142255
150.650000 -2.142255 -2.142255
150.700000 -2.142255 -2.142255
150.750000 -2.142255 -2.142255
150.800000 -2.142255 -2.142255
150.850000 -2.142255 -2.142255
150.900000 -2.142255 -2.142255
150.950000 -2.142255 -2.142255
151.000000 -2.142255 -2.142255
151.050000 -2.142255 -2.142255
151.100000 -2.142255 -2.142255
151.150000 -2.142255 -2.142255
151.200000 -2.142255 -2.142255
151.250000 -2.142255 -2.142255
151.300000 -2.142255 -2.142255
151.350000 -2.142255 -2.142255
151.400000 -2.142255 -2.142255
151.450000 -2.142255 -2.142255
151.500000 -2.142255 -2.142255
151.550000 -2.142255 -2.142255
151.600000 -2.142255 -2.142255
151.650000 -2.142255 -2.142255
151.700000 -2.142255 -2.142255
151.750000 -2.142255 -2.142255
151.800000 -2.142255 -2.142255
151.850000 -2.142255 -2.142255
151.900000 -2.142255 -2.142255
151.950000 -2.142255 -2.142255
152.000000 -2.142255 -2.142255
152.050000 -2.142255 -2.142255
152.100000 -2.142255 -2.142255
152.150000 -2.142255 -2.142255
152.200000 -2.142255 -2.142255
152.250000 -2.142255 -2.142255
152.300000 -2.142255 -2.142255
152.350000 -2.142255 -2.142255
152.400000 -2.142255 -2.142255
152.450000 -2.142255 -2.142255
152.500000 -2.142255 -2.142255
152.550000 -2.142255 -2.142255
152.600000 -2.142255 -2.142255
152.650000 -2.142255 -2.142255
152.700000 -2.142255 -2.142255
152.750000 -2.142255 -2.142255
152.800000 -2.142255 -2.142255
152.850000 -2.142255 -2.142255
152.900000 -2.142255 -2.142255
152.950000 -2.142255 -2.142255
153.000000 -2.142255 -2.142255
153.050000 -2.142255 -2.142255
153.100000 -2.142255 -2.142255
153.150000 -2.142255 -2.142255
153.200000 -2.142255 -2.142255
153.250000 -2.142255 -2.142255
153.300000 -2.142255 -2.142255
153.350000 -2.142255 -2.142255
153.400000 -2.142255 -2.142255
153.450000 -2.142255 -2.142255
153.500000 -2.142255 -2.142255
153.550000 -2.142255 -2.142255
153.600000 -2.142255 -2.142255
153.650000 -2.142255 -2.142255
153.700000 -2.142255 -2.142255
153.750000 -2.142255 -2.142255
153.800000 -2.142255 -2.142255
153.850000 -2.142255 -2.142255
153.900000 -2.142255 -2.142255
153.950000 -2.142255 -2.142255
154.000000 -2.142255 -2.142255
154.050000 -2.142255 -2.142255
154.100000 -2.142255 -2.142255
154.150000 -2.142255 -2.142255
154.200000 -2.142255 -2.142255
154.250000 -2.142255 -2.142255
154.300000 -2.142255 -2.142255
154.350000 -2.142255 -2.142255
154.400000 -2.142255 -2.142255
154.450000 -2.142255 -2.142255
154.500000 -2.142255 -2.142255
154.550000 -2.142255 -2.142255
154.600000 -2.142255 -2.142255
154.650000 -2.142255 -2.142255
154.700000 -2.142255 -2.142255
154.750000 -2.142255 -2.142255
154.800000 -2.142255 -2.142255
154.850000 -2.142255 -2.142255
154.900000 -2.142255 -2.142255
154.950000 -2.142255 -2.142255
155.000000 -2.142255 -2.142255
155.050000 -2.142255 -2.142255
155.100000 -2.142255 -2.142255
155.150000 -2.142255 -2.142255
155.200000 -2.142255 -2.142255
155.250000 -2.142255 -2.142255
155.300000 -2.142255 -2.142255
155.350000 -2.142255 -2.142255
155.400000 -2.142255 -2.142255
155.450000 -2.142255 -2.142255
155.500000 -2.142255 -2.142255
155.550000 -2.142255 -2.142255
155.600000 -2.142255 -2.142255
155.650000 -2.142255 -2.142255
155.700000 -2.142255 -2.142255
155.750000 -2.142255 -2.142255
155.800000 -2.142255 -2.142255
155.850000 -2.142255 -2.142255
155.900000 -2.142255 -2.142255
155.950000 -2.142255 -2.142255
156.000000 -2.142255 -2.142255
156.050000 -2.142255 -2.142255
156.100000 -2.142255 -2.142255
156.150000 -2.142255 -2.142255
156.200000 -2.142255 -2.142255
156.250000 -2.142255 -2.142255
156.300000 -2.142255 -2.142255
156.350000 -2.142255 -2.142255
156.400000 -2.142255 -2.142255
156.450000 -2.142255 -2.142255
156.500000 -2.142255 -2.142255
156.550000 -2.142255 -2.142255
156.600000 -2.142255 -2.142255
156.650000 -2.142255 -2.142255
156.700000 -2.142255 -2.142255
156.750000 -2.142255 -2.142255
156.800000 -2.142255 -2.142255
156.850000 -2.142255 -2.142255
156.900000 -2.142255 -2.142255
156.950000 -2.142255 -2.142255
157.000000 -2.142255 -2.142255
157.050000 -2.142255 -2.142255
157.100000 -2.142255 -2.142255
157.150000 -2.142255 -2.142255
157.200000 -2.142255 -2.142255
157.250000 -2.142255 -2.142255
157.300000 -2.142255 -2.142255
157.350000 -2.142255 -2.142255
157.400000 -2.142255 -2.142255
157.450000 -2.142255 -2.142255
157.500000 -2.142255 -2.142255
157.550000 -2.142255 -2.142255
157.600000 -2.142255 -2.142255
157.650000 -2.142255 -2.142255
157.700000 -2.142255 -2.142255
157.750000 -2.142255 -2.142255
157.800000 -2.142255 -2.142255
157.850000 -2.142255 -2.142255
157.900000 -2.142255 -2.142255
157.950000 -2.142255 -2.142255
158.000000 -2.142255 -2.142255
158.050000 -2.142255 -2.142255
158.100000 -2.142255 -2.142255
158.150000 -2.142255 -2.142255
158.200000 -2.142255 -2.142255
158.250000 -2.142255 -2.142255
158.300000 -2.142255 -2.142255
158.350000 -2.142255 -2.142255
158.400000 -2.142255 -2.142255
158.450000 -2.142255 -2.142255
158.500000 -2.142255 -2.142255
158.550000 -2.142255 -2.142255
158.600000 -2.142255 -2.142255
158.650000 -2.142255 -2.142255
158.700000 -2.142255 -2.142255
158.750000 -2.142255 -2.142255
158.800000 -2.142255 -2.142255
158.850000 -2.142255 -2.142255
158.900000 -2.142255 -2.142255
158.950000 -2.142255 -2.142255
159.000000 -2.142255 -2.142255
159.050000 -2.142255 -2.142255
159.100000 -2.142255 -2.142255
159.150000 -2.142255 -2.142255
159.200000 -2.142255 -2.142255
159.250000 -2.142255 -2.142255
159.300000 -2.142255 -2.142255
159.350000 -2.142255 -2.142255
159.400000 -2.142255 -2.142255
159.450000 -2.142255 -2.142255
159.500000 -2.142255 -2.142255
159.550000 -2.142255 -2.142255
159.600000 -2.142255 -2.142255
159.650000 -2.142255 -2.142255
159.700000 -2.142255 -2.142255
159.750000 -2.142255 -2.142255
159.800000 -2.142255 -2.142255
159.850000 -2.142255 -2.142255
159.900000 -2.142255 -2.142255
159.950000 -2.142255 -2.142255
160.000000 -2.142255 -2.142255
160.050000 -2.142255 -2.142255
160.100000 -2.142255 -2.142255
160.150000 -2.142255 -2.142255
160.200000 -2.142255 -2.142255
160.250000 -2.142255 -2.142255
160.300000 -2.142255 -2.142255
160.350000 -2.142255 -2.142255
160.400000 -2.142255 -2.142255
160.450000 -2.142255 -2.142255
160.500000 -2.142255 -2.142255
160.550000 -2.142255 -2.142255
160.600000 -2.142255 -2.142255
160.650000 -2.142255 -2.142255
160.700000 -2.142255 -2.142255
160.750000 -2.142255 -2.142255
160.800000 -2.142255 -2.142255
160.850000 -2.142255 -2.142255
160.900000 -2.142255 -2.142255
160.950000 -2.142255 -2.142255
161.000000 -2.142255 -2.142255
161.050000 -2.142255 -2.142255
161.100000 -2.142255 -2.142255
161.150000 -2.142255 -2.142255
161.200000 -2.142255 -2.142255
161.250000 -2.142255 -2.142255
161.300000 -2.142255 -2.142255
161.350000 -2.142255 -2.142255
161.400000 -2.142255 -2.142255
161.450000 -2.142255 -2.142255
161.500000 -2.142255 -2.142255
161.550000 -2.142255 -2.142255
161.600000 -2.142255 -2.142255
161.650000 -2.142255 -2.142255
161.700000 -2.142255 -2.142255
161.750000 -2.142255 -2.142255
161.800000 -2.142255 -2.142255
161.850000 -2.142255 -2.142255
161.900000 -2.142255 -2.142255
161.950000 -2.142255 -2.142255
162.000000 -2.142255 -2.142255
162.050000 -2.142255 -2.142255
162.100000 -2.142255 -2.142255
162.150000 -2.142255 -2.142255
162.200000 -2.142255 -2.142255
162.250000 -2.142255 -2.142255
162.300000 -2.142255 -2.142255
162.350000 -2.142255 -2.142255
162.400000 -2.142255 -2.142255
162.450000 -2.142255 -2.142255
162.500000 -2.142255 -2.142255
162.550000 -2.142255 -2.142255
162.600000 -2.142255 -2.142255
162.650000 -2.142255 -2.142255
162.700000 -2.142255 -2.142255
162.750000 -2.142255 -2.142255
162.800000 -2.142255 -2.142255
162.850000 -2.142255 -2.142255
162.900000 -2.142255 -2.142255
162.950000 -2.142255 -2.142255
163.000000 -2.142255 -2.142255
163.050000 -2.142255 -2.142255
163.100000 -2.142255 -2.142255
163.150000 -2.142255 -2.142255
163.200000 -2.142255 -2.142255
163.250000 -2.142255 -2.142255
163.300000 -2.142255 -2.142255
163.350000 -2.142255 -2.142255
163.400000 -2.142255 -2.142255
163.450000 -2.142255 -2.142255
163.500000 -2.142255 -2.142255
163.550000 -2.142255 -2.142255
163.600000 -2.142255 -2.142255
163.650000 -2.142255 -2.142255
163.700000 -2.142255 -2.142255
163.750000 -2.142255 -2.142255
163.800000 -2.142255 -2.142255
163.850000 -2.142255 -2.142255
163.900000 -2.142255 -2.142255
163.950000 -2.142255 -2.142255
164.000000 -2.142255 -2.142255
164.050000 -2.142255 -2.142255
164.100000 -2.142255 -2.142255
164.150000 -2.142255 -2.142255
164.200000 -2.142255 -2.142255
164.250000 -2.142255 -2.142255
164.300000 -2.142255 -2.142255
164.350000 -2.142255 -2.142255
164.400000 -2.142255 -2.142255
164.450000 -2.142255 -2.142255
164.500000 -2.142255 -2.142255
164.550000 -2.142255 -2.142255
164.600000 -2.142255 -2.142255
164.650000 -2.142255 -2.142255
164.700000 -2.142255 -2.142255
164.750000 -2.142255 -2.142255
164.800000 -2.142255 -2.142255
164.850000 -2.142255 -2.142255
164.900000 -2.142255 -2.142255
164.950000 -2.142255 -2.142255
165.000000 -2.142255 -2.142255
165.050000 -2.142255 -2.142255
165.100000 -2.142255 -2.142255
165.150000 -2.142255 -2.142255
165.200000 -2.142255 -2.142255
165.250000 -2.142255 -2.142255
165.300000 -2.142255 -2.142255
165.350000 -2.142255 -2.142255
165.400000 -2.142255 -2.142255
165.450000 -2.142255 -2.142255
165.500000 -2.142255 -2.142255
165.550000 -2.142255 -2.142255
165.600000 -2.142255 -2.142255
165.650000 -2.142255 -2.142255
165.700000 -2.142255 -2.142255
165.750000 -2.142255 -2.142255
165.800000 -2.142255 -2.142255
165.850000 -2.142255 -2.142255
165.900000 -2.142255 -2.142255
165.950000 -2.142255 -2.142255
166.000000 -2.142255 -2.142255
166.050000 -2.142255 -2.142255
166.100000 -2.142255 -2.142255
166.150000 -2.142255 -2.142255
166.200000 -2.142255 -2.142255
166.250000 -2.142255 -2.142255
166.300000 -2.142255 -2.142255
166.350000 -2.142255 -2.142255
166.400000 -2.142255 -2.142255
166.450000 -2.142255 -2.142255
166.500000 -2.142255 -2.142255
166.550000 -2.142255 -2.142255
166.600000 -2.142255 -2.142255
166.650000 -2.142255 -2.142255
166.700000 -2.142255 -2.142255
166.750000 -2.142255 -2.142255
166.800000 -2.142255 -2.142255
166.850000 -2.142255 -2.142255
166.900000 -2.142255 -2.142255
166.950000 -2.142255 -2.142255
167.000000 -2.142255 -2.142255
167.050000 -2.142255 -2.142255
167.100000 -2.142255 -2.142255
167.150000 -2.142255 -2.142255
167.200000 -2.142255 -2.142255
167.250000 -2.142255 -2.142255
167.300000 -2.142255 -2.142255
167.350000 -2.142255 -2.142255
167.400000 -2.142255 -2.142255
167.450000 -2.142255 -2.142255
167.500000 -2.142255 -2.142255
167.550000 -2.142255 -2.142255
167.600000 -2.142255 -2.142255
167.650000 -2.142255 -2.142255
167.700000 -2.142255 -2.142255
167.750000 -2.142255 -2.142255
167.800000 -2.142255 -2.142255
167.850000 -2.142255 -2.142255
167.900000 -2.142255 -2.142255
167.950000 -2.142255 -2.142255
168.000000 -2.142255 -2.142255
168.050000 -2.142255 -2.142255
168.100000 -2.142255 -2.142255
168.150000 -2.142255 -2.142255
168.200000 -2.142255 -2.142255
168.250000 -2.142255 -2.142255
168.300000 -2.142255 -2.142255
168.350000 -2.142255 -2.142255
168.400000 -2.142255 -2.142255
168.450000 -2.142255 -2.142255
168.500000 -2.142255 -2.142255
168.550000 -2.142255 -2.142255
168.600000 -2.142255 -2.142255
168.650000 -2.142255 -2.142255
168.700000 -2.142255 -2.142255
168.750000 -2.142255 -2.142255
168.800000 -2.142255 -2.142255
168.850000 -2.142255 -2.142255
168.900000 -2.142255 -2.142255
168.950000 -2.142255 -2.142255
169.000000 -2.142255 -2.142255
169.050000 -2.142255 -2.142255
169.100000 -2.142255 -2.142255
169.150000 -2.142255 -2.142255
169.200000 -2.142255 -2.142255
169.250000 -2.142255 -2.142255
169.300000 -2.142255 -2.142255
169.350000 -2.142255 -2.142255
169.400000 -2.142255 -2.142255
169.450000 -2.142255 -2.142255
169.500000 -2.142255 -2.142255
169.550000 -2.142255 -2.142255
169.600000 -2.142255 -2.142255
169.650000 -2.142255 -2.142255
169.700000 -2.142255 -2.142255
169.750000 -2.142255 -2.142255
169.800000 -2.142255 -2.142255
169.850000 -2.142255 -2.142255
169.900000 -2.142255 -2.142255
169.950000 -2.142255 -2.142255
170.000000 -2.142255 -2.142255
170.050000 -2.142255 -2.142255
170.100000 -2.142255 -2.142255
170.150000 -2.142255 -2.142255
170.200000 -2.142255 -2.142255
170.250000 -2.142255 -2.142255
170.300000 -2.142255 -2.142255
170.350000 -2.142255 -2.142255
170.400000 -2.142255 -2.142255
170.450000 -2.142255 -2.142255
170.500000 -2.142255 -2.142255
170.550000 -2.142255 -2.142255
170.600000 -2.142255 -2.142255
170.650000 -2.142255 -2.142255
170.700000 -2.142255 -2.142255
170.750000 -2.142255 -2.142255
170.800000 -2.142255 -2.142255
170.850000 -2.142255 -2.142255
170.900000 -2.142255 -2.142255
170.950000 -2.142255 -2.142255
171.000000 -2.142255 -2.142255
171.050000 -2.142255 -2.142255
171.100000 -2.142255 -2.142255
171.150000 -2.142255 -2.142255
171.200000 -2.142255 -2.142255
171.250000 -2.142255 -2.142255
171.300000 -2.142255 -2.142255
171.350000 -2.142255 -2.142255
171.400000 -2.142255 -2.142255
171.450000 -2.142255 -2.142255
171.500000 -2.142255 -2.142255
171.550000 -2.142255 -2.142255
171.600000 -2.142255 -2.142255
171.650000 -2.142255 -2.142255
171.700000 -2.142255 -2.142255
171.750000 -2.142255 -2.142255
171.800000 -2.142255 -2.142255
171.850000 -2.142255 -2.142255
171.900000 -2.142255 -2.142255
171.950000 -2.142255 -2.142255
172.000000 -2.142255 -2.142255
172.050000 -2.142255 -2.142255
172.100000 -2.142255 -2.142255
172.150000 -2.142255 -2.142255
172.200000 -2.142255 -2.142255
172.250000 -2.142255 -2.142255
172.300000 -2.142255 -2.142255
172.350000 -2.142255 -2.142255
172.400000 -2.142255 -2.142255
172.450000 -2.142255 -2.142255
172.500000 -2.142255 -2.142255
172.550000 -2.142255 -2.142255
172.600000 -2.142255 -2.142255
172.650000 -2.142255 -2.142255
172.700000 -2.142255 -2.142255
172.750000 -2.142255 -2.142255
172.800000 -2.142255 -2.142255
172.850000 -2.142255 -2.142255
172.900000 -2.142255 -2.142255
172.950000 -2.142255 -2.142255
173.000000 -2.142255 -2.142255
173.050000 -2.142255 -2.142255
173.100000 -2.142255 -2.142255
173.150000 -2.142255 -2.142255
173.200000 -2.142255 -2.142255
173.250000 -2.142255 -2.142255
173.300000 -2.142255 -2.142255
173.350000 -2.142255 -2.142255
173.400000 -2.142255 -2.142255
173.450000 -2.142255 -2.142255
173.500000 -2.142255 -2.142255
173.550000 -2.142255 -2.142255
173.600000 -2.142255 -2.142255
173.650000 -2.142255 -2.142255
173.700000 -2.142255 -2.142255
173.750000 -2.142255 -2.142255
173.800000 -2.142255 -2.142255
173.850000 -2.142255 -2.142255
173.900000 -2.142255 -2.142255
173.950000 -2.142255 -2.142255
174.000000 -2.142255 -2.142255
174.050000 -2.142255 -2.142255
174.100000 -2.142255 -2.142255
174.150000 -2.142255 -2.142255
174.200000 -2.142255 -2.142255
174.250000 -2.142255 -2.142255
174.300000 -2.142255 -2.142255
174.350000 -2.142255 -2.142255
174.400000 -2.142255 -2.142255
174.450000 -2.142255 -2.142255
174.500000 -2.142255 -2.142255
174.550000 -2.142255 -2.142255
174.600000 -2.142255 -2.142255
174.650000 -2.142255 -2.142255
174.700000 -2.142255 -2.142255
174.750000 -2.142255 -2.142255
174.800000 -2.142255 -2.142255
174.850000 -2.142255 -2.142255
174.900000 -2.142255 -2.142255
174.950000 -2.142255 -2.142255
175.000000 -2.142255 -2.142255
175.050000 -2.142255 -2.142255
175.100000 -2.142255 -2.142255
175.150000 -2.142255 -2.142255
175.200000 -2.142255 -2.142255
175.250000 -2.142255 -2.142255
175.300000 -2.142255 -2.142255
175.350000 -2.142255 -2.142255
175.400000 -2.142255 -2.142255
175.450000 -2.142255 -2.142255
175.500000 -2.142255 -2.142255
175.550000 -2.142255 -2.142255
175.600000 -2.142255 -2.142255
175.650000 -2.142255 -2.142255
175.700000 -2.142255 -2.142255
175.750000 -2.142255 -2.142255
175.800000 -2.142255 -2.142255
175.850000 -2.142255 -2.142255
175.900000 -2.142255 -2.142255
175.950000 -2.142255 -2.142255
176.000000 -2.142255 -2.142255
176.050000 -2.142255 -2.142255
176.100000 -2.142255 -2.142255
176.150000 -2.142255 -2.142255
176.200000 -2.142255 -2.142255
176.250000 -2.142255 -2.142255
176.300000 -2.142255 -2.142255
176.350000 -2.142255 -2.142255
176.400000 -2.142255 -2.142255
176.450000 -2.142255 -2.142255
176.500000 -2.142255 -2.142255
176.550000 -2.142255 -2.142255
176.600000 -2.142255 -2.142255
176.650000 -2.142255 -2.142255
176.700000 -2.142255 -2.142255
176.750000 -2.142255 -2.142255
176.800000 -2.142255 -2.142255
176.850000 -2.142255 -2.142255
176.900000 -2.142255 -2.142255
176.950000 -2.142255 -2.142255
177.000000 -2.142255 -2.142255
177.050000 -2.142255 -2.142255
177.100000 -2.142255 -2.142255
177.150000 -2.142255 -2.142255
177.200000 -2.142255 -2.142255
177.250000 -2.142255 -2.142255
177.300000 -2.142255 -2.142255
177.350000 -2.142255 -2.142255
177.400000 -2.142255 -2.142255
177.450000 -2.142255 -2.142255
177.500000 -2.142255 -2.142255
177.550000 -2.142255 -2.142255
177.600000 -2.142255 -2.142255
177.650000 -2.142255 -2.142255
177.700000 -2.142255 -2.142255
177.750000 -2.142255 -2.142255
177.800000 -2.142255 -2.142255
177.850000 -2.142255 -2.142255
177.900000 -2.142255 -2.142255
177.950000 -2.142255 -2.142255
178.000000 -2.142255 -2.142255
178.050000 -2.142255 -2.142255
178.100000 -2.142255 -2.142255
178.150000 -2.142255 -2.142255
178.200000 -2.142255 -2.142255
178.250000 -2.142255 -2.142255
178.300000 -2.142255 -2.142255
178.350000 -2.142255 -2.142255
178.400000 -2.142255 -2.142255
178.450000 -2.142255 -2.142255
178.500000 -2.142255 -2.142255
178.550000 -2.142255 -2.142255
178.600000 -2.142255 -2.142255
178.650000 -2.142255 -2.142255
178.700000 -2.142255 -2.142255
178.750000 -2.142255 -2.142255
178.800000 -2.142255 -2.142255
178.850000 -2.142255 -2.142255
178.900000 -2.142255 -2.142255
178.950000 -2.142255 -2.142255
179.000000 -2.142255 -2.142255
179.050000 -2.142255 -2.142255
179.100000 -2.142255 -2.142255
179.150000 -2.142255 -2.142255
179.200000 -2.142255 -2.142255
179.250000 -2.142255 -2.142255
179.300000 -2.142255 -2.142255
179.350000 -2.142255 -2.142255
179.400000 -2.142255 -2.142255
179.450000 -2.142255 -2.142255
179.500000 -2.142255 -2.142255
179.550000 -2.142255 -2.142255
179.600000 -2.142255 -2.142255
179.650000 -2.142255 -2.142255
179.700000 -2.142255 -2.142255
179.750000 -2.142255 -2.142255
179.800000 -2.142255 -2.142255
179.850000 -2.142255 -2.142255
179.900000 -2.142255 -2.142255
179.950000 -2.142255 -2.142255
180.000000 -2.142255 -2.142255
180.050000 -2.142255 -2.142255
180.100000 -2.142255 -2.142255
180.150000 -2.142255 -2.142255
180.200000 -2.142255 -2.142255
180.250000 -2.142255 -2.142255
180.300000 -2.142255 -2.142255
180.350000 -2.142255 -2.142255
180.400000 -2.142255 -2.142255
180.450000 -2.142255 -2.142255
180.500000 -2.142255 -2.142255
180.550000 -2.142255 -2.142255
180.600000 -2.142255 -2.142255
180.650000 -2.142255 -2.142255
180.700000 -2.142255 -2.142255
180.750000 -2.142255 -2.142255
180.800000 -2.142255 -2.142255
180.850000 -2.142255 -2.142255
180.900000 -2.142255 -2.142255
180.950000 -2.142255 -2.142255
181.000000 -2.142255 -2.142255
181.050000 -2.142255 -2.142255
181.100000 -2.142255 -2.142255
181.150000 -2.142255 -2.142255
181.200000 -2.142255 -2.142255
181.250000 -2.142255 -2.142255
181.300000 -2.142255 -2.142255
181.350000 -2.142255 -2.142255
181.400000 -2.142255 -2.142255
181.450000 -2.142255 -2.142255
181.500000 -2.142255 -2.142255
181.550000 -2.142255 -2.142255
181.600000 -2.142255 -2.142255
181.650000 -2.142255 -2.142255
181.700000 -2.142255 -2.142255
181.750000 -2.142255 -2.142255
181.800000 -2.142255 -2.142255
181.850000 -2.142255 -2.142255
181.900000 -2.142255 -2.142255
181.950000 -2.142255 -2.142255
182.000000 -2.142255 -2.142255
182.050000 -2.142255 -2.142255
182.100000 -2.142255 -2.142255
182.150000 -2.142255 -2.142255
182.200000 -2.142255 -2.142255
182.250000 -2.142255 -2.142255
182.300000 -2.142255 -2.142255
182.350000 -2.142255 -2.142255
182.400000 -2.142255 -2.142255
182.450000 -2.142255 -2.142255
182.500000 -2.142255 -2.142255
182.550000 -2.142255 -2.142255
182.600000 -2.142255 -2.142255
182.650000 -2.142255 -2.142255
182.700000 -2.142255 -2.142255
182.750000 -2.142255 -2.142255
182.800000 -2.142255 -2.142255
182.850000 -2.142255 -2.142255
182.900000 -2.142255 -2.142255
182.950000 -2.142255 -2.142255
183.000000 -2.142255 -2.142255
183.050000 -2.142255 -2.142255
183.100000 -2.142255 -2.142255
183.150000 -2.142255 -2.142255
183.200000 -2.142255 -2.142255
183.250000 -2.142255 -2.142255
183.300000 -2.142255 -2.142255
183.350000 -2.142255 -2.142255
183.400000 -2.142255 -2.142255
183.450000 -2.142255 -2.142255
183.500000 -2.142255 -2.142255
183.550000 -2.142255 -2.142255
183.600000 -2.142255 -2.142255
183.650000 -2.142255 -2.142255
183.700000 -2.142255 -2.142255
183.750000 -2.142255 -2.142255
183.800000 -2.142255 -2.142255
183.850000 -2.142255 -2.142255
183.900000 -2.142255 -2.142255
183.950000 -2.142255 -2.142255
184.000000 -2.142255 -2.142255
184.050000 -2.142255 -2.142255
184.100000 -2.142255 -2.142255
184.150000 -2.142255 -2.142255
184.200000 -2.142255 -2.142255
184.250000 -2.142255 -2.142255
184.300000 -2.142255 -2.142255
184.350000 -2.142255 -2.142255
184.400000 -2.142255 -2.142255
184.450000 -2.142255 -2.142255
184.500000 -2.142255 -2.142255
184.550000 -2.142255 -2.142255
184.600000 -2.142255 -2.142255
184.650000 -2.142255 -2.142255
184.700000 -2.142255 -2.142255
184.750000 -2.142255 -2.142255
184.800000 -2.142255 -2.142255
184.850000 -2.142255 -2.142255
184.900000 -2.142255 -2.142255
184.950000 -2.142255 -2.142255
185.000000 -2.142255 -2.142255
185.050000 -2.142255 -2.142255
185.100000 -2.142255 -2.142255
185.150000 -2.142255 -2.142255
185.200000 -2.142255 -2.142255
185.250000 -2.142255 -2.142255
185.300000 -2.142255 -2.142255
185.350000 -2.142255 -2.142255
185.400000 -2.142255 -2.142255
185.450000 -2.142255 -2.142255
185.500000 -2.142255 -2.142255
185.550000 -2.142255 -2.142255
185.600000 -2.142255 -2.142255
185.650000 -2.142255 -2.142255
185.700000 -2.142255 -2.142255
185.750000 -2.142255 -2.142255
185.800000 -2.142255 -2.142255
185.850000 -2.142255 -2.142255
185.900000 -2.142255 -2.142255
185.950000 -2.142255 -2.142255
186.000000 -2.142255 -2.142255
186.050000 -2.142255 -2.142255
186.100000 -2.142255 -2.142255
186.150000 -2.142255 -2.142255
186.200000 -2.142255 -2.142255
186.250000 -2.142255 -2.142255
186.300000 -2.142255 -2.142255
186.350000 -2.142255 -2.142255
186.400000 -2.142255 -2.142255
186.450000 -2.142255 -2.142255
186.500000 -2.142255 -2.142255
186.550000 -2.142255 -2.142255
186.600000 -2.142255 -2.142255
186.650000 -2.142255 -2.142255
186.700000 -2.142255 -2.142255
186.750000 -2.142255 -2.142255
186.800000 -2.142255 -2.142255
186.850000 -2.142255 -2.142255
186.900000 -2.142255 -2.142255
186.950000 -2.142255 -2.142255
187.000000 -2.142255 -2.142255
