fit_time[ns] Functional_fit[mV] Thermal_fit[mV]
3.700000 17.763682 16.611482
3.750000 17.688324 16.252194
3.800000 17.580440 15.900459
3.850000 17.434393 15.556110
3.900000 17.245766 15.218985
3.950000 17.011454 14.888924
4.000000 16.729711 14.565774
4.050000 16.400175 14.249381
4.100000 16.023850 13.939600
4.150000 15.603057 13.636284
4.200000 15.141351 13.339294
4.250000 14.643413 13.048491
4.300000 14.114912 12.763741
4.350000 13.562342 12.484913
4.400000 12.992851 12.211877
4.450000 12.414044 11.944509
4.500000 11.833786 11.682686
4.550000 11.259998 11.426287
4.600000 10.700456 11.175197
4.650000 10.162598 10.929301
4.700000 9.653340 10.688486
4.750000 9.178905 10.452644
4.800000 8.744682 10.221668
4.850000 8.355097 9.995453
4.900000 8.013519 9.773898
4.950000 7.722182 9.556903
5.000000 7.482153 9.344371
5.050000 7.293313 9.136206
5.100000 7.154380 8.932315
5.150000 7.062956 8.732607
5.200000 7.015599 8.536993
5.250000 7.007922 8.345387
5.300000 7.034719 8.157703
5.350000 7.090100 7.973858
5.400000 7.167648 7.793771
5.450000 7.260586 7.617362
5.500000 7.361947 7.444554
5.550000 7.464748 7.275270
5.600000 7.562168 7.109436
5.650000 7.647707 6.946980
5.700000 7.715343 6.787831
5.750000 7.759677 6.631918
5.800000 7.776051 6.479175
5.850000 7.760654 6.329534
5.900000 7.710602 6.182930
5.950000 7.623996 6.039300
6.000000 7.499950 5.898582
6.050000 7.338596 5.760715
6.100000 7.141066 5.625639
6.150000 6.909449 5.493296
6.200000 6.646716 5.363628
6.250000 6.356639 5.236581
6.300000 6.043679 5.112100
6.350000 5.712863 4.990132
6.400000 5.369651 4.870623
6.450000 5.019792 4.753523
6.500000 4.669173 4.638783
6.550000 4.323671 4.526353
6.600000 3.989002 4.416186
6.650000 3.670586 4.308234
6.700000 3.373410 4.202451
6.750000 3.101910 4.098794
6.800000 2.859869 3.997218
6.850000 2.650331 3.897681
6.900000 2.475535 3.800139
6.950000 2.336871 3.704553
7.000000 2.234855 3.610882
7.050000 2.169132 3.519086
7.100000 2.138493 3.429127
7.150000 2.140921 3.340967
7.200000 2.173647 3.254570
7.250000 2.233237 3.169899
7.300000 2.315681 3.086919
7.350000 2.416501 3.005596
7.400000 2.530872 2.925894
7.450000 2.653745 2.847782
7.500000 2.779974 2.771227
7.550000 2.904447 2.696197
7.600000 3.022210 2.622661
7.650000 3.128590 2.550588
7.700000 3.219304 2.479949
7.750000 3.290560 2.410714
7.800000 3.339143 2.342855
7.850000 3.362488 2.276344
7.900000 3.358729 2.211153
7.950000 3.326738 2.147257
8.000000 3.266139 2.084627
8.050000 3.177308 2.023240
8.100000 3.061348 1.963069
8.150000 2.920054 1.904090
8.200000 2.755853 1.846278
8.250000 2.571737 1.789611
8.300000 2.371177 1.734065
8.350000 2.158028 1.679618
8.400000 1.936431 1.626246
8.450000 1.710700 1.573929
8.500000 1.485214 1.522646
8.550000 1.264304 1.472374
8.600000 1.052149 1.423095
8.650000 0.852671 1.374788
8.700000 0.669440 1.327433
8.750000 0.505592 1.281011
8.800000 0.363757 1.235504
8.850000 0.245997 1.190894
8.900000 0.153767 1.147161
8.950000 0.087886 1.104289
9.000000 0.048524 1.062260
9.050000 0.035211 1.021058
9.100000 0.046855 0.980665
9.150000 0.081776 0.941066
9.200000 0.137763 0.902244
9.250000 0.212131 0.864185
9.300000 0.301797 0.826873
9.350000 0.403361 0.790292
9.400000 0.513199 0.754429
9.450000 0.627550 0.719270
9.500000 0.742617 0.684799
9.550000 0.854659 0.651003
9.600000 0.960085 0.617869
9.650000 1.055539 0.585383
9.700000 1.137979 0.553534
9.750000 1.204751 0.522307
9.800000 1.253646 0.491691
9.850000 1.282951 0.461673
9.900000 1.291480 0.432242
9.950000 1.278598 0.403386
10.000000 1.244227 0.375094
10.050000 1.188842 0.347353
10.100000 1.113446 0.320155
10.150000 1.019539 0.293486
10.200000 0.909075 0.267338
10.250000 0.784402 0.241699
10.300000 0.648201 0.216561
10.350000 0.503411 0.191911
10.400000 0.353152 0.167742
10.450000 0.200649 0.144044
10.500000 0.049143 0.120807
10.550000 -0.098188 0.098022
10.600000 -0.238305 0.075680
10.650000 -0.368383 0.053773
10.700000 -0.485882 0.032291
10.750000 -0.588599 0.011227
10.800000 -0.674726 -0.009427
10.850000 -0.742883 -0.029681
10.900000 -0.792150 -0.049541
10.950000 -0.822082 -0.069016
11.000000 -0.832711 -0.088113
11.050000 -0.824542 -0.106839
11.100000 -0.798531 -0.125203
11.150000 -0.756055 -0.143210
11.200000 -0.698871 -0.160868
11.250000 -0.629068 -0.178184
11.300000 -0.549010 -0.195165
11.350000 -0.461271 -0.211816
11.400000 -0.368570 -0.228146
11.450000 -0.273701 -0.244159
11.500000 -0.179461 -0.259862
11.550000 -0.088582 -0.275262
11.600000 -0.003662 -0.290364
11.650000 0.072894 -0.305174
11.700000 0.138935 -0.319697
11.750000 0.192610 -0.333940
11.800000 0.232412 -0.347908
11.850000 0.257210 -0.361606
11.900000 0.266270 -0.375040
11.950000 0.259268 -0.388214
12.000000 0.236292 -0.401134
12.050000 0.197832 -0.413805
12.100000 0.144764 -0.426231
12.150000 0.078320 -0.438418
12.200000 0.000053 -0.450370
12.250000 -0.088205 -0.462091
12.300000 -0.184400 -0.473587
12.350000 -0.286299 -0.484861
12.400000 -0.391561 -0.495918
12.450000 -0.497788 -0.506762
12.500000 -0.602588 -0.517397
12.550000 -0.703638 -0.527828
12.600000 -0.798738 -0.538058
12.650000 -0.885862 -0.548091
12.700000 -0.963212 -0.557931
12.750000 -1.029252 -0.567583
12.800000 -1.082751 -0.577048
12.850000 -1.122800 -0.586332
12.900000 -1.148838 -0.595437
12.950000 -1.160653 -0.604367
13.000000 -1.158391 -0.613126
13.050000 -1.142539 -0.621717
13.100000 -1.113913 -0.630143
13.150000 -1.073628 -0.638407
13.200000 -1.023073 -0.646512
13.250000 -0.963865 -0.654463
13.300000 -0.897808 -0.662260
13.350000 -0.826848 -0.669908
13.400000 -0.753017 -0.677410
13.450000 -0.678387 -0.684767
13.500000 -0.605014 -0.691984
13.550000 -0.534887 -0.699063
13.600000 -0.469883 -0.706006
13.650000 -0.411716 -0.712816
13.700000 -0.361904 -0.719495
13.750000 -0.321729 -0.726047
13.800000 -0.292210 -0.732473
13.850000 -0.274082 -0.738777
13.900000 -0.267784 -0.744960
13.950000 -0.273447 -0.751024
14.000000 -0.290901 -0.756973
14.050000 -0.319682 -0.762808
14.100000 -0.359048 -0.768531
14.150000 -0.408001 -0.774145
14.200000 -0.465317 -0.779652
14.250000 -0.529577 -0.785053
14.300000 -0.599212 -0.790352
14.350000 -0.672537 -0.795549
14.400000 -0.747799 -0.800647
14.450000 -0.823221 -0.805648
14.500000 -0.897046 -0.810553
14.550000 -0.967581 -0.815365
14.600000 -1.033237 -0.820085
14.650000 -1.092572 -0.824715
14.700000 -1.144316 -0.829257
14.750000 -1.187410 -0.833712
14.800000 -1.221021 -0.838082
14.850000 -1.244564 -0.842369
14.900000 -1.257711 -0.846574
14.950000 -1.260398 -0.850699
15.000000 -1.252818 -0.854745
15.050000 -1.235417 -0.858715
15.100000 -1.208875 -0.862609
15.150000 -1.174090 -0.866429
15.200000 -1.132149 -0.870176
15.250000 -1.084298 -0.873851
15.300000 -1.031911 -0.877457
15.350000 -0.976452 -0.880994
15.400000 -0.919439 -0.884464
15.450000 -0.862401 -0.887868
15.500000 -0.806847 -0.891208
15.550000 -0.754221 -0.894483
15.600000 -0.705873 -0.897697
15.650000 -0.663022 -0.900849
15.700000 -0.626734 -0.903942
15.750000 -0.597890 -0.906976
15.800000 -0.577172 -0.909952
15.850000 -0.565049 -0.912872
15.900000 -0.561765 -0.915736
15.950000 -0.567341 -0.918546
16.000000 -0.581574 -0.921303
16.050000 -0.604047 -0.924007
16.100000 -0.634143 -0.926660
16.150000 -0.671065 -0.929262
16.200000 -0.713853 -0.931816
16.250000 -0.761416 -0.934321
16.300000 -0.812560 -0.936778
16.350000 -0.866018 -0.939189
16.400000 -0.920482 -0.941554
16.450000 -0.974639 -0.943874
16.500000 -1.027203 -0.946150
16.550000 -1.076944 -0.948383
16.600000 -1.122721 -0.950574
16.650000 -1.163508 -0.952724
16.700000 -1.198419 -0.954832
16.750000 -1.226723 -0.956901
16.800000 -1.247868 -0.958931
16.850000 -1.261486 -0.960922
16.900000 -1.267400 -0.962875
16.950000 -1.265628 -0.964792
17.000000 -1.256379 -0.966672
17.050000 -1.240043 -0.968517
17.100000 -1.217181 -0.970327
17.150000 -1.188505 -0.972102
17.200000 -1.154863 -0.973844
17.250000 -1.117211 -0.975553
17.300000 -1.076591 -0.977230
17.350000 -1.034103 -0.978875
17.400000 -0.990874 -0.980489
17.450000 -0.948033 -0.982073
17.500000 -0.906682 -0.983626
17.550000 -0.867867 -0.985151
17.600000 -0.832555 -0.986646
17.650000 -0.801611 -0.988113
17.700000 -0.775776 -0.989553
17.750000 -0.755654 -0.990965
17.800000 -0.741695 -0.992351
17.850000 -0.734187 -0.993710
17.900000 -0.733255 -0.995044
17.950000 -0.738856 -0.996353
18.000000 -0.750785 -0.997637
18.050000 -0.768680 -0.998897
18.100000 -0.792036 -1.000133
18.150000 -0.820222 -1.001346
18.200000 -0.852490 -1.002536
18.250000 -0.888006 -1.003703
18.300000 -0.925864 -1.004848
18.350000 -0.965115 -1.005972
18.400000 -1.004786 -1.007075
18.450000 -1.043911 -1.008157
18.500000 -1.081550 -1.009218
18.550000 -1.116813 -1.010260
18.600000 -1.148885 -1.011282
18.650000 -1.177040 -1.012285
18.700000 -1.200659 -1.013268
18.750000 -1.219249 -1.014234
18.800000 -1.232445 -1.015181
18.850000 -1.240024 -1.016110
18.900000 -1.241905 -1.017022
18.950000 -1.238150 -1.017916
19.000000 -1.228960 -1.018794
19.050000 -1.214668 -1.019656
19.100000 -1.195729 -1.020501
19.150000 -1.172707 -1.021330
19.200000 -1.146257 -1.022143
19.250000 -1.117111 -1.022942
19.300000 -1.086055 -1.023725
19.350000 -1.053912 -1.024494
19.400000 -1.021519 -1.025248
19.450000 -0.989705 -1.025988
19.500000 -0.959273 -1.026714
19.550000 -0.930980 -1.027426
19.600000 -0.905514 -1.028125
19.650000 -0.883486 -1.028811
19.700000 -0.865409 -1.029484
19.750000 -0.851692 -1.030144
19.800000 -0.842627 -1.030792
19.850000 -0.838386 -1.031428
19.900000 -0.839017 -1.032052
19.950000 -0.844447 -1.032664
20.000000 -0.854482 -1.033265
20.050000 -0.868820 -1.033854
20.100000 -0.887051 -1.034433
20.150000 -0.908678 -1.035000
20.200000 -0.933123 -1.035557
20.250000 -0.959750 -1.036104
20.300000 -0.987876 -1.036640
20.350000 -1.016790 -1.037166
20.400000 -1.045773 -1.037682
20.450000 -1.074114 -1.038189
20.500000 -1.101131 -1.038686
20.550000 -1.126181 -1.039173
20.600000 -1.148683 -1.039652
20.650000 -1.168126 -1.040122
20.700000 -1.184084 -1.040582
20.750000 -1.196223 -1.041035
20.800000 -1.204310 -1.041478
20.850000 -1.208215 -1.041914
20.900000 -1.207915 -1.042341
20.950000 -1.203492 -1.042760
21.000000 -1.195129 -1.043172
21.050000 -1.183104 -1.043575
21.100000 -1.167782 -1.043972
21.150000 -1.149605 -1.044360
21.200000 -1.129078 -1.044742
21.250000 -1.106758 -1.045116
21.300000 -1.083238 -1.045483
21.350000 -1.059131 -1.045844
21.400000 -1.035056 -1.046198
21.450000 -1.011621 -1.046545
21.500000 -0.989409 -1.046885
21.550000 -0.968964 -1.047219
21.600000 -0.950776 -1.047547
21.650000 -0.935273 -1.047869
21.700000 -0.922810 -1.048185
21.750000 -0.913658 -1.048495
21.800000 -0.908003 -1.048799
21.850000 -0.905941 -1.049097
21.900000 -0.907477 -1.049390
21.950000 -0.912525 -1.049678
22.000000 -0.920914 -1.049960
22.050000 -0.932391 -1.050236
22.100000 -0.946630 -1.050508
22.150000 -0.963242 -1.050774
22.200000 -0.981783 -1.051036
22.250000 -1.001769 -1.051293
22.300000 -1.022686 -1.051544
22.350000 -1.044005 -1.051792
22.400000 -1.065196 -1.052034
22.450000 -1.085738 -1.052272
22.500000 -1.105134 -1.052506
22.550000 -1.122925 -1.052735
22.600000 -1.138698 -1.052960
22.650000 -1.152095 -1.053180
22.700000 -1.162823 -1.053397
22.750000 -1.170662 -1.053610
22.800000 -1.175465 -1.053818
22.850000 -1.177163 -1.054023
22.900000 -1.175766 -1.054224
22.950000 -1.171360 -1.054421
23.000000 -1.164106 -1.054614
23.050000 -1.154233 -1.054804
23.100000 -1.142030 -1.054991
23.150000 -1.127842 -1.055173
23.200000 -1.112056 -1.055353
23.250000 -1.095096 -1.055529
23.300000 -1.077405 -1.055702
23.350000 -1.059440 -1.055871
23.400000 -1.041656 -1.056038
23.450000 -1.024499 -1.056201
23.500000 -1.008391 -1.056361
23.550000 -0.993721 -1.056519
23.600000 -0.980837 -1.056673
23.650000 -0.970037 -1.056824
23.700000 -0.961562 -1.056973
23.750000 -0.955592 -1.057119
23.800000 -0.952242 -1.057262
23.850000 -0.951560 -1.057403
23.900000 -0.953524 -1.057540
23.950000 -0.958051 -1.057676
24.000000 -0.964992 -1.057809
24.050000 -0.974140 -1.057939
24.100000 -0.985238 -1.058067
24.150000 -0.997982 -1.058192
24.200000 -1.012035 -1.058316
24.250000 -1.027027 -1.058436
24.300000 -1.042576 -1.058555
24.350000 -1.058287 -1.058672
24.400000 -1.073771 -1.058786
24.450000 -1.088646 -1.058898
24.500000 -1.102555 -1.059008
24.550000 -1.115169 -1.059116
24.600000 -1.126194 -1.059222
24.650000 -1.135384 -1.059326
24.700000 -1.142539 -1.059428
24.750000 -1.147515 -1.059528
24.800000 -1.150222 -1.059627
24.850000 -1.150631 -1.059723
24.900000 -1.148768 -1.059818
24.950000 -1.144715 -1.059911
25.000000 -1.138611 -1.060002
25.050000 -1.130639 -1.060092
25.100000 -1.121029 -1.060179
25.150000 -1.110048 -1.060266
25.200000 -1.097992 -1.060350
25.250000 -1.085179 -1.060433
25.300000 -1.071944 -1.060515
25.350000 -1.058623 -1.060595
25.400000 -1.045552 -1.060673
25.450000 -1.033055 -1.060750
25.500000 -1.021437 -1.060826
25.550000 -1.010976 -1.060900
25.600000 -1.001916 -1.060973
25.650000 -0.994465 -1.061045
25.700000 -0.988786 -1.061115
25.750000 -0.984994 -1.061184
25.800000 -0.983158 -1.061251
25.850000 -0.983296 -1.061318
25.900000 -0.985376 -1.061383
25.950000 -0.989318 -1.061447
26.000000 -0.994998 -1.061509
26.050000 -1.002249 -1.061571
26.100000 -1.010869 -1.061631
26.150000 -1.020623 -1.061690
26.200000 -1.031254 -1.061749
26.250000 -1.042483 -1.061806
26.300000 -1.054024 -1.061862
26.350000 -1.065586 -1.061917
26.400000 -1.076882 -1.061971
26.450000 -1.087635 -1.062024
26.500000 -1.097588 -1.062076
26.550000 -1.106504 -1.062127
26.600000 -1.114181 -1.062177
26.650000 -1.120445 -1.062226
26.700000 -1.125163 -1.062274
26.750000 -1.128243 -1.062322
26.800000 -1.129633 -1.062368
26.850000 -1.129326 -1.062414
26.900000 -1.127356 -1.062458
26.950000 -1.123798 -1.062502
27.000000 -1.118766 -1.062545
27.050000 -1.112410 -1.062588
27.100000 -1.104907 -1.062629
27.150000 -1.096464 -1.062670
27.200000 -1.087307 -1.062710
27.250000 -1.077674 -1.062749
27.300000 -1.067815 -1.062788
27.350000 -1.057980 -1.062826
27.400000 -1.048414 -1.062863
27.450000 -1.039352 -1.062899
27.500000 -1.031014 -1.062935
27.550000 -1.023597 -1.062970
27.600000 -1.017273 -1.063005
27.650000 -1.012185 -1.063039
27.700000 -1.008440 -1.063072
27.750000 -1.006113 -1.063104
27.800000 -1.005242 -1.063136
27.850000 -1.005826 -1.063168
27.900000 -1.007830 -1.063198
27.950000 -1.011184 -1.063229
28.000000 -1.015784 -1.063258
28.050000 -1.021497 -1.063287
28.100000 -1.028166 -1.063316
28.150000 -1.035609 -1.063344
28.200000 -1.043632 -1.063372
28.250000 -1.052024 -1.063399
28.300000 -1.060574 -1.063425
28.350000 -1.069065 -1.063451
28.400000 -1.077288 -1.063477
28.450000 -1.085042 -1.063502
28.500000 -1.092143 -1.063526
28.550000 -1.098423 -1.063551
28.600000 -1.103739 -1.063574
28.650000 -1.107973 -1.063598
28.700000 -1.111038 -1.063620
28.750000 -1.112875 -1.063643
28.800000 -1.113457 -1.063665
28.850000 -1.112789 -1.063687
28.900000 -1.110908 -1.063708
28.950000 -1.107879 -1.063729
29.000000 -1.103795 -1.063749
29.050000 -1.098775 -1.063769
29.100000 -1.092959 -1.063789
29.150000 -1.086503 -1.063808
29.200000 -1.079579 -1.063827
29.250000 -1.072367 -1.063846
29.300000 -1.065052 -1.063864
29.350000 -1.057817 -1.063882
29.400000 -1.050843 -1.063899
29.450000 -1.044300 -1.063917
29.500000 -1.038344 -1.063934
29.550000 -1.033116 -1.063950
29.600000 -1.028735 -1.063967
29.650000 -1.025298 -1.063983
29.700000 -1.022877 -1.063998
29.750000 -1.021517 -1.064014
29.800000 -1.021237 -1.064029
29.850000 -1.022028 -1.064044
29.900000 -1.023853 -1.064058
29.950000 -1.026653 -1.064073
30.000000 -1.030343 -1.064087
30.050000 -1.034818 -1.064101
30.100000 -1.039955 -1.064114
30.150000 -1.045617 -1.064127
30.200000 -1.051654 -1.064141
30.250000 -1.057911 -1.064153
30.300000 -1.064229 -1.064166
30.350000 -1.070451 -1.064178
30.400000 -1.076421 -1.064190
30.450000 -1.081997 -1.064202
30.500000 -1.087045 -1.064214
30.550000 -1.091448 -1.064225
30.600000 -1.095106 -1.064237
30.650000 -1.097939 -1.064248
30.700000 -1.099890 -1.064259
30.750000 -1.100923 -1.064269
30.800000 -1.101028 -1.064280
30.850000 -1.100215 -1.064290
30.900000 -1.098518 -1.064300
30.950000 -1.095995 -1.064310
31.000000 -1.092721 -1.064320
31.050000 -1.088788 -1.064329
31.100000 -1.084304 -1.064338
31.150000 -1.079391 -1.064348
31.200000 -1.074178 -1.064357
31.250000 -1.068798 -1.064365
31.300000 -1.063389 -1.064374
31.350000 -1.058086 -1.064383
31.400000 -1.053020 -1.064391
31.450000 -1.048315 -1.064399
31.500000 -1.044081 -1.064407
31.550000 -1.040417 -1.064415
31.600000 -1.037407 -1.064423
31.650000 -1.035115 -1.064430
31.700000 -1.033589 -1.064438
31.750000 -1.032855 -1.064445
31.800000 -1.032918 -1.064452
31.850000 -1.033767 -1.064460
31.900000 -1.035368 -1.064466
31.950000 -1.037669 -1.064473
32.000000 -1.040604 -1.064480
32.050000 -1.044089 -1.064487
32.100000 -1.048030 -1.064493
32.150000 -1.052322 -1.064499
32.200000 -1.056852 -1.064505
32.250000 -1.061505 -1.064512
32.300000 -1.066162 -1.064518
32.350000 -1.070708 -1.064523
32.400000 -1.075031 -1.064529
32.450000 -1.079027 -1.064535
32.500000 -1.082602 -1.064540
32.550000 -1.085672 -1.064546
32.600000 -1.088169 -1.064551
32.650000 -1.090041 -1.064556
32.700000 -1.091248 -1.064562
32.750000 -1.091773 -1.064567
32.800000 -1.091612 -1.064572
32.850000 -1.090779 -1.064576
32.900000 -1.089306 -1.064581
32.950000 -1.087238 -1.064586
33.000000 -1.084638 -1.064591
33.050000 -1.081577 -1.064595
33.100000 -1.078140 -1.064600
33.150000 -1.074416 -1.064604
33.200000 -1.070505 -1.064608
33.250000 -1.066506 -1.064612
33.300000 -1.062519 -1.064616
33.350000 -1.058646 -1.064621
33.400000 -1.054979 -1.064625
33.450000 -1.051609 -1.064628
33.500000 -1.048614 -1.064632
33.550000 -1.046063 -1.064636
33.600000 -1.044013 -1.064640
33.650000 -1.042509 -1.064643
33.700000 -1.041579 -1.064647
33.750000 -1.041238 -1.064650
33.800000 -1.041485 -1.064654
33.850000 -1.042306 -1.064657
33.900000 -1.043671 -1.064660
33.950000 -1.045539 -1.064664
34.000000 -1.047856 -1.064667
34.050000 -1.050556 -1.064670
34.100000 -1.053567 -1.064673
34.150000 -1.056810 -1.064676
34.200000 -1.060199 -1.064679
34.250000 -1.063649 -1.064682
34.300000 -1.067072 -1.064685
34.350000 -1.070385 -1.064688
34.400000 -1.073505 -1.064690
34.450000 -1.076359 -1.064693
34.500000 -1.078878 -1.064696
34.550000 -1.081006 -1.064698
34.600000 -1.082696 -1.064701
34.650000 -1.083911 -1.064703
34.700000 -1.084630 -1.064706
34.750000 -1.084841 -1.064708
34.800000 -1.084547 -1.064710
34.850000 -1.083764 -1.064713
34.900000 -1.082517 -1.064715
34.950000 -1.080846 -1.064717
35.000000 -1.078798 -1.064719
35.050000 -1.076430 -1.064722
35.100000 -1.073806 -1.064724
35.150000 -1.070995 -1.064726
35.200000 -1.068071 -1.064728
35.250000 -1.065107 -1.064730
35.300000 -1.062179 -1.064732
35.350000 -1.059359 -1.064734
35.400000 -1.056715 -1.064736
35.450000 -1.054311 -1.064738
35.500000 -1.052203 -1.064739
35.550000 -1.050439 -1.064741
35.600000 -1.049059 -1.064743
35.650000 -1.048090 -1.064745
35.700000 -1.047551 -1.064746
35.750000 -1.047448 -1.064748
35.800000 -1.047778 -1.064750
35.850000 -1.048526 -1.064751
35.900000 -1.049667 -1.064753
35.950000 -1.051167 -1.064754
36.000000 -1.052983 -1.064756
36.050000 -1.055065 -1.064757
36.100000 -1.057356 -1.064759
36.150000 -1.059798 -1.064760
36.200000 -1.062326 -1.064762
36.250000 -1.064877 -1.064763
36.300000 -1.067387 -1.064764
36.350000 -1.069793 -1.064766
36.400000 -1.072037 -1.064767
36.450000 -1.074067 -1.064768
36.500000 -1.075834 -1.064770
36.550000 -1.077299 -1.064771
36.600000 -1.078429 -1.064772
36.650000 -1.079202 -1.064773
36.700000 -1.079604 -1.064774
36.750000 -1.079630 -1.064775
36.800000 -1.079285 -1.064777
36.850000 -1.078584 -1.064778
36.900000 -1.077550 -1.064779
36.950000 -1.076213 -1.064780
37.000000 -1.074611 -1.064781
37.050000 -1.072789 -1.064782
37.100000 -1.070794 -1.064783
37.150000 -1.068680 -1.064784
37.200000 -1.066501 -1.064785
37.250000 -1.064312 -1.064786
37.300000 -1.062167 -1.064787
37.350000 -1.060121 -1.064788
37.400000 -1.058221 -1.064789
37.450000 -1.056514 -1.064790
37.500000 -1.055039 -1.064790
37.550000 -1.053829 -1.064791
37.600000 -1.052911 -1.064792
37.650000 -1.052303 -1.064793
37.700000 -1.052015 -1.064794
37.750000 -1.052050 -1.064794
37.800000 -1.052402 -1.064795
37.850000 -1.053057 -1.064796
37.900000 -1.053995 -1.064797
37.950000 -1.055188 -1.064798
38.000000 -1.056603 -1.064798
38.050000 -1.058200 -1.064799
38.100000 -1.059938 -1.064800
38.150000 -1.061771 -1.064800
38.200000 -1.063651 -1.064801
38.250000 -1.065532 -1.064802
38.300000 -1.067366 -1.064802
38.350000 -1.069108 -1.064803
38.400000 -1.070717 -1.064804
38.450000 -1.072154 -1.064804
38.500000 -1.073387 -1.064805
38.550000 -1.074386 -1.064805
38.600000 -1.075132 -1.064806
38.650000 -1.075610 -1.064807
38.700000 -1.075811 -1.064807
38.750000 -1.075734 -1.064808
38.800000 -1.075387 -1.064808
38.850000 -1.074781 -1.064809
38.900000 -1.073936 -1.064809
38.950000 -1.072876 -1.064810
39.000000 -1.071631 -1.064810
39.050000 -1.070235 -1.064811
39.100000 -1.068725 -1.064811
39.150000 -1.067140 -1.064812
39.200000 -1.065521 -1.064812
39.250000 -1.063909 -1.064813
39.300000 -1.062344 -1.064813
39.350000 -1.060864 -1.064813
39.400000 -1.059504 -1.064814
39.450000 -1.058298 -1.064814
39.500000 -1.057272 -1.064815
39.550000 -1.056450 -1.064815
39.600000 -1.055848 -1.064816
39.650000 -1.055479 -1.064816
39.700000 -1.055348 -1.064816
39.750000 -1.055456 -1.064817
39.800000 -1.055795 -1.064817
39.850000 -1.056353 -1.064817
39.900000 -1.057114 -1.064818
39.950000 -1.058056 -1.064818
40.000000 -1.059152 -1.064818
40.050000 -1.060372 -1.064819
40.100000 -1.061685 -1.064819
40.150000 -1.063056 -1.064819
40.200000 -1.064451 -1.064820
40.250000 -1.065833 -1.064820
40.300000 -1.067170 -1.064820
40.350000 -1.068427 -1.064821
40.400000 -1.069576 -1.064821
40.450000 -1.070589 -1.064821
40.500000 -1.071443 -1.064822
40.550000 -1.072119 -1.064822
40.600000 -1.072603 -1.064822
40.650000 -1.072886 -1.064822
40.700000 -1.072963 -1.064823
40.750000 -1.072837 -1.064823
40.800000 -1.072512 -1.064823
40.850000 -1.072001 -1.064823
40.900000 -1.071319 -1.064824
40.950000 -1.070485 -1.064824
41.000000 -1.069523 -1.064824
41.050000 -1.068458 -1.064824
41.100000 -1.067319 -1.064825
41.150000 -1.066135 -1.064825
41.200000 -1.064936 -1.064825
41.250000 -1.063752 -1.064825
41.300000 -1.062613 -1.064826
41.350000 -1.061547 -1.064826
41.400000 -1.060578 -1.064826
41.450000 -1.059730 -1.064826
41.500000 -1.059021 -1.064826
41.550000 -1.058468 -1.064827
41.600000 -1.058082 -1.064827
41.650000 -1.057869 -1.064827
41.700000 -1.057833 -1.064827
41.750000 -1.057972 -1.064827
41.800000 -1.058280 -1.064827
41.850000 -1.058746 -1.064828
41.900000 -1.059357 -1.064828
41.950000 -1.060095 -1.064828
42.000000 -1.060940 -1.064828
42.050000 -1.061868 -1.064828
42.100000 -1.062857 -1.064828
42.150000 -1.063880 -1.064829
42.200000 -1.064911 -1.064829
42.250000 -1.065924 -1.064829
42.300000 -1.066895 -1.064829
42.350000 -1.067799 -1.064829
42.400000 -1.068616 -1.064829
42.450000 -1.069326 -1.064830
42.500000 -1.069914 -1.064830
42.550000 -1.070366 -1.064830
42.600000 -1.070673 -1.064830
42.650000 -1.070829 -1.064830
42.700000 -1.070834 -1.064830
42.750000 -1.070690 -1.064830
42.800000 -1.070401 -1.064830
42.850000 -1.069978 -1.064831
42.900000 -1.069433 -1.064831
42.950000 -1.068782 -1.064831
43.000000 -1.068042 -1.064831
43.050000 -1.067233 -1.064831
43.100000 -1.066376 -1.064831
43.150000 -1.065494 -1.064831
43.200000 -1.064609 -1.064831
43.250000 -1.063743 -1.064831
43.300000 -1.062917 -1.064832
43.350000 -1.062151 -1.064832
43.400000 -1.061463 -1.064832
43.450000 -1.060870 -1.064832
43.500000 -1.060384 -1.064832
43.550000 -1.060017 -1.064832
43.600000 -1.059775 -1.064832
43.650000 -1.059663 -1.064832
43.700000 -1.059681 -1.064832
43.750000 -1.059828 -1.064832
43.800000 -1.060097 -1.064832
43.850000 -1.060480 -1.064833
43.900000 -1.060965 -1.064833
43.950000 -1.061540 -1.064833
44.000000 -1.062188 -1.064833
44.050000 -1.062892 -1.064833
44.100000 -1.063634 -1.064833
44.150000 -1.064395 -1.064833
44.200000 -1.065155 -1.064833
44.250000 -1.065895 -1.064833
44.300000 -1.066598 -1.064833
44.350000 -1.067246 -1.064833
44.400000 -1.067824 -1.064833
44.450000 -1.068319 -1.064833
44.500000 -1.068720 -1.064833
44.550000 -1.069018 -1.064834
44.600000 -1.069207 -1.064834
44.650000 -1.069284 -1.064834
44.700000 -1.069249 -1.064834
44.750000 -1.069105 -1.064834
44.800000 -1.068856 -1.064834
44.850000 -1.068511 -1.064834
44.900000 -1.068079 -1.064834
44.950000 -1.067573 -1.064834
45.000000 -1.067007 -1.064834
45.050000 -1.066395 -1.064834
45.100000 -1.065753 -1.064834
45.150000 -1.065098 -1.064834
45.200000 -1.064446 -1.064834
45.250000 -1.063814 -1.064834
45.300000 -1.063217 -1.064834
45.350000 -1.062669 -1.064834
45.400000 -1.062184 -1.064834
45.450000 -1.061771 -1.064835
45.500000 -1.061442 -1.064835
45.550000 -1.061202 -1.064835
45.600000 -1.061056 -1.064835
45.650000 -1.061006 -1.064835
45.700000 -1.061053 -1.064835
45.750000 -1.061193 -1.064835
45.800000 -1.061422 -1.064835
45.850000 -1.061732 -1.064835
45.900000 -1.062115 -1.064835
45.950000 -1.062560 -1.064835
46.000000 -1.063055 -1.064835
46.050000 -1.063587 -1.064835
46.100000 -1.064142 -1.064835
46.150000 -1.064705 -1.064835
46.200000 -1.065264 -1.064835
46.250000 -1.065803 -1.064835
46.300000 -1.066311 -1.064835
46.350000 -1.066773 -1.064835
46.400000 -1.067181 -1.064835
46.450000 -1.067524 -1.064835
46.500000 -1.067794 -1.064835
46.550000 -1.067987 -1.064835
46.600000 -1.068098 -1.064835
46.650000 -1.068127 -1.064835
46.700000 -1.068073 -1.064835
46.750000 -1.067939 -1.064835
46.800000 -1.067730 -1.064836
46.850000 -1.067451 -1.064836
46.900000 -1.067112 -1.064836
46.950000 -1.066721 -1.064836
47.000000 -1.066289 -1.064836
47.050000 -1.065828 -1.064836
47.100000 -1.065349 -1.064836
47.150000 -1.064864 -1.064836
47.200000 -1.064385 -1.064836
47.250000 -1.063926 -1.064836
47.300000 -1.063495 -1.064836
47.350000 -1.063105 -1.064836
47.400000 -1.062764 -1.064836
47.450000 -1.062479 -1.064836
47.500000 -1.062258 -1.064836
47.550000 -1.062104 -1.064836
47.600000 -1.062021 -1.064836
47.650000 -1.062009 -1.064836
47.700000 -1.062067 -1.064836
47.750000 -1.062194 -1.064836
47.800000 -1.062385 -1.064836
47.850000 -1.062633 -1.064836
47.900000 -1.062933 -1.064836
47.950000 -1.063276 -1.064836
48.000000 -1.063653 -1.064836
48.050000 -1.064053 -1.064836
48.100000 -1.064467 -1.064836
48.150000 -1.064884 -1.064836
48.200000 -1.065293 -1.064836
48.250000 -1.065685 -1.064836
48.300000 -1.066049 -1.064836
48.350000 -1.066378 -1.064836
48.400000 -1.066664 -1.064836
48.450000 -1.066899 -1.064836
48.500000 -1.067080 -1.064836
48.550000 -1.067202 -1.064836
48.600000 -1.067263 -1.064836
48.650000 -1.067263 -1.064836
48.700000 -1.067202 -1.064836
48.750000 -1.067084 -1.064836
48.800000 -1.066911 -1.064836
48.850000 -1.066689 -1.064836
48.900000 -1.066424 -1.064836
48.950000 -1.066124 -1.064836
49.000000 -1.065796 -1.064836
49.050000 -1.065449 -1.064836
49.100000 -1.065092 -1.064836
49.150000 -1.064734 -1.064836
49.200000 -1.064384 -1.064836
49.250000 -1.064051 -1.064836
49.300000 -1.063742 -1.064836
49.350000 -1.063465 -1.064836
49.400000 -1.063227 -1.064836
49.450000 -1.063032 -1.064836
49.500000 -1.062885 -1.064836
49.550000 -1.062789 -1.064836
49.600000 -1.062746 -1.064836
49.650000 -1.062755 -1.064837
49.700000 -1.062816 -1.064837
49.750000 -1.062926 -1.064837
49.800000 -1.063083 -1.064837
49.850000 -1.063280 -1.064837
49.900000 -1.063514 -1.064837
49.950000 -1.063777 -1.064837
50.000000 -1.064062 -1.064837
50.050000 -1.064362 -1.064837
50.100000 -1.064670 -1.064837
50.150000 -1.064977 -1.064837
50.200000 -1.065276 -1.064837
50.250000 -1.065560 -1.064837
50.300000 -1.065821 -1.064837
50.350000 -1.066054 -1.064837
50.400000 -1.066253 -1.064837
50.450000 -1.066413 -1.064837
50.500000 -1.066532 -1.064837
50.550000 -1.066607 -1.064837
50.600000 -1.066636 -1.064837
50.650000 -1.066621 -1.064837
50.700000 -1.066561 -1.064837
50.750000 -1.066459 -1.064837
50.800000 -1.066318 -1.064837
50.850000 -1.066142 -1.064837
50.900000 -1.065937 -1.064837
50.950000 -1.065707 -1.064837
51.000000 -1.065459 -1.064837
51.050000 -1.065199 -1.064837
51.100000 -1.064934 -1.064837
51.150000 -1.064671 -1.064837
51.200000 -1.064416 -1.064837
51.250000 -1.064175 -1.064837
51.300000 -1.063954 -1.064837
51.350000 -1.063759 -1.064837
51.400000 -1.063593 -1.064837
51.450000 -1.063461 -1.064837
51.500000 -1.063365 -1.064837
51.550000 -1.063307 -1.064837
51.600000 -1.063289 -1.064837
51.650000 -1.063309 -1.064837
51.700000 -1.063367 -1.064837
51.750000 -1.063460 -1.064837
51.800000 -1.063587 -1.064837
51.850000 -1.063743 -1.064837
51.900000 -1.063923 -1.064837
51.950000 -1.064124 -1.064837
52.000000 -1.064340 -1.064837
52.050000 -1.064564 -1.064837
52.100000 -1.064792 -1.064837
52.150000 -1.065018 -1.064837
52.200000 -1.065236 -1.064837
52.250000 -1.065440 -1.064837
52.300000 -1.065627 -1.064837
52.350000 -1.065791 -1.064837
52.400000 -1.065928 -1.064837
52.450000 -1.066037 -1.064837
52.500000 -1.066113 -1.064837
52.550000 -1.066157 -1.064837
52.600000 -1.066168 -1.064837
52.650000 -1.066145 -1.064837
52.700000 -1.066089 -1.064837
52.750000 -1.066004 -1.064837
52.800000 -1.065890 -1.064837
52.850000 -1.065752 -1.064837
52.900000 -1.065594 -1.064837
52.950000 -1.065418 -1.064837
53.000000 -1.065231 -1.064837
53.050000 -1.065037 -1.064837
53.100000 -1.064841 -1.064837
53.150000 -1.064648 -1.064837
53.200000 -1.064463 -1.064837
53.250000 -1.064289 -1.064837
53.300000 -1.064132 -1.064837
53.350000 -1.063995 -1.064837
53.400000 -1.063880 -1.064837
53.450000 -1.063792 -1.064837
53.500000 -1.063731 -1.064837
53.550000 -1.063698 -1.064837
53.600000 -1.063694 -1.064837
53.650000 -1.063719 -1.064837
53.700000 -1.063771 -1.064837
53.750000 -1.063849 -1.064837
53.800000 -1.063950 -1.064837
53.850000 -1.064072 -1.064837
53.900000 -1.064211 -1.064837
53.950000 -1.064364 -1.064837
54.000000 -1.064526 -1.064837
54.050000 -1.064694 -1.064837
54.100000 -1.064862 -1.064837
54.150000 -1.065027 -1.064837
54.200000 -1.065185 -1.064837
54.250000 -1.065332 -1.064837
54.300000 -1.065465 -1.064837
54.350000 -1.065580 -1.064837
54.400000 -1.065674 -1.064837
54.450000 -1.065746 -1.064837
54.500000 -1.065795 -1.064837
54.550000 -1.065819 -1.064837
54.600000 -1.065818 -1.064837
54.650000 -1.065792 -1.064837
54.700000 -1.065744 -1.064837
54.750000 -1.065673 -1.064837
54.800000 -1.065583 -1.064837
54.850000 -1.065475 -1.064837
54.900000 -1.065353 -1.064837
54.950000 -1.065220 -1.064837
55.000000 -1.065080 -1.064837
55.050000 -1.064935 -1.064837
55.100000 -1.064791 -1.064837
55.150000 -1.064649 -1.064837
55.200000 -1.064515 -1.064837
55.250000 -1.064390 -1.064837
55.300000 -1.064279 -1.064837
55.350000 -1.064183 -1.064837
55.400000 -1.064105 -1.064837
55.450000 -1.064046 -1.064837
55.500000 -1.064008 -1.064837
55.550000 -1.063991 -1.064837
55.600000 -1.063996 -1.064837
55.650000 -1.064021 -1.064837
55.700000 -1.064066 -1.064837
55.750000 -1.064130 -1.064837
55.800000 -1.064211 -1.064837
55.850000 -1.064306 -1.064837
55.900000 -1.064412 -1.064837
55.950000 -1.064528 -1.064837
56.000000 -1.064650 -1.064837
56.050000 -1.064774 -1.064837
56.100000 -1.064898 -1.064837
56.150000 -1.065019 -1.064837
56.200000 -1.065133 -1.064837
56.250000 -1.065238 -1.064837
56.300000 -1.065332 -1.064837
56.350000 -1.065412 -1.064837
56.400000 -1.065476 -1.064837
56.450000 -1.065524 -1.064837
56.500000 -1.065554 -1.064837
56.550000 -1.065565 -1.064837
56.600000 -1.065558 -1.064837
56.650000 -1.065533 -1.064837
56.700000 -1.065491 -1.064837
56.750000 -1.065434 -1.064837
56.800000 -1.065362 -1.064837
56.850000 -1.065279 -1.064837
56.900000 -1.065186 -1.064837
56.950000 -1.065085 -1.064837
57.000000 -1.064980 -1.064837
57.050000 -1.064873 -1.064837
57.100000 -1.064766 -1.064837
57.150000 -1.064663 -1.064837
57.200000 -1.064566 -1.064837
57.250000 -1.064477 -1.064837
57.300000 -1.064398 -1.064837
57.350000 -1.064332 -1.064837
57.400000 -1.064279 -1.064837
57.450000 -1.064241 -1.064837
57.500000 -1.064218 -1.064837
57.550000 -1.064211 -1.064837
57.600000 -1.064220 -1.064837
57.650000 -1.064244 -1.064837
57.700000 -1.064282 -1.064837
57.750000 -1.064334 -1.064837
57.800000 -1.064397 -1.064837
57.850000 -1.064470 -1.064837
57.900000 -1.064552 -1.064837
57.950000 -1.064639 -1.064837
58.000000 -1.064730 -1.064837
58.050000 -1.064822 -1.064837
58.100000 -1.064913 -1.064837
58.150000 -1.065001 -1.064837
58.200000 -1.065084 -1.064837
58.250000 -1.065159 -1.064837
58.300000 -1.065225 -1.064837
58.350000 -1.065280 -1.064837
58.400000 -1.065323 -1.064837
58.450000 -1.065354 -1.064837
58.500000 -1.065371 -1.064837
58.550000 -1.065375 -1.064837
58.600000 -1.065365 -1.064837
58.650000 -1.065342 -1.064837
58.700000 -1.065307 -1.064837
58.750000 -1.065261 -1.064837
58.800000 -1.065205 -1.064837
58.850000 -1.065141 -1.064837
58.900000 -1.065070 -1.064837
58.950000 -1.064994 -1.064837
59.000000 -1.064915 -1.064837
59.050000 -1.064836 -1.064837
59.100000 -1.064758 -1.064837
59.150000 -1.064683 -1.064837
59.200000 -1.064613 -1.064837
59.250000 -1.064550 -1.064837
59.300000 -1.064495 -1.064837
59.350000 -1.064449 -1.064837
59.400000 -1.064413 -1.064837
59.450000 -1.064389 -1.064837
59.500000 -1.064376 -1.064837
59.550000 -1.064375 -1.064837
59.600000 -1.064385 -1.064837
59.650000 -1.064407 -1.064837
59.700000 -1.064439 -1.064837
59.750000 -1.064480 -1.064837
59.800000 -1.064530 -1.064837
59.850000 -1.064586 -1.064837
59.900000 -1.064648 -1.064837
59.950000 -1.064714 -1.064837
60.000000 -1.064781 -1.064837
60.050000 -1.064850 -1.064837
60.100000 -1.064916 -1.064837
60.150000 -1.064980 -1.064837
60.200000 -1.065039 -1.064837
60.250000 -1.065093 -1.064837
60.300000 -1.065139 -1.064837
60.350000 -1.065177 -1.064837
60.400000 -1.065206 -1.064837
60.450000 -1.065225 -1.064837
60.500000 -1.065234 -1.064837
60.550000 -1.065233 -1.064837
60.600000 -1.065223 -1.064837
60.650000 -1.065203 -1.064837
60.700000 -1.065174 -1.064837
60.750000 -1.065137 -1.064837
60.800000 -1.065093 -1.064837
60.850000 -1.065044 -1.064837
60.900000 -1.064990 -1.064837
60.950000 -1.064933 -1.064837
61.000000 -1.064875 -1.064837
61.050000 -1.064816 -1.064837
61.100000 -1.064759 -1.064837
61.150000 -1.064705 -1.064837
61.200000 -1.064655 -1.064837
61.250000 -1.064610 -1.064837
61.300000 -1.064571 -1.064837
61.350000 -1.064540 -1.064837
61.400000 -1.064517 -1.064837
61.450000 -1.064501 -1.064837
61.500000 -1.064495 -1.064837
61.550000 -1.064497 -1.064837
61.600000 -1.064508 -1.064837
61.650000 -1.064526 -1.064837
61.700000 -1.064552 -1.064837
61.750000 -1.064585 -1.064837
61.800000 -1.064624 -1.064837
61.850000 -1.064667 -1.064837
61.900000 -1.064714 -1.064837
61.950000 -1.064763 -1.064837
62.000000 -1.064813 -1.064837
62.050000 -1.064863 -1.064837
62.100000 -1.064912 -1.064837
62.150000 -1.064958 -1.064837
62.200000 -1.065001 -1.064837
62.250000 -1.065038 -1.064837
62.300000 -1.065071 -1.064837
62.350000 -1.065096 -1.064837
62.400000 -1.065115 -1.064837
62.450000 -1.065127 -1.064837
62.500000 -1.065131 -1.064837
62.550000 -1.065128 -1.064837
62.600000 -1.065118 -1.064837
62.650000 -1.065101 -1.064837
62.700000 -1.065077 -1.064837
62.750000 -1.065048 -1.064837
62.800000 -1.065014 -1.064837
62.850000 -1.064977 -1.064837
62.900000 -1.064936 -1.064837
62.950000 -1.064893 -1.064837
63.000000 -1.064850 -1.064837
63.050000 -1.064807 -1.064837
63.100000 -1.064765 -1.064837
63.150000 -1.064726 -1.064837
63.200000 -1.064690 -1.064837
63.250000 -1.064659 -1.064837
63.300000 -1.064632 -1.064837
63.350000 -1.064611 -1.064837
63.400000 -1.064596 -1.064837
63.450000 -1.064587 -1.064837
63.500000 -1.064584 -1.064837
63.550000 -1.064588 -1.064837
63.600000 -1.064598 -1.064837
63.650000 -1.064613 -1.064837
63.700000 -1.064634 -1.064837
63.750000 -1.064660 -1.064837
63.800000 -1.064690 -1.064837
63.850000 -1.064723 -1.064837
63.900000 -1.064758 -1.064837
63.950000 -1.064795 -1.064837
64.000000 -1.064832 -1.064837
64.050000 -1.064869 -1.064837
64.100000 -1.064905 -1.064837
64.150000 -1.064938 -1.064837
64.200000 -1.064968 -1.064837
64.250000 -1.064995 -1.064837
64.300000 -1.065017 -1.064837
64.350000 -1.065034 -1.064837
64.400000 -1.065046 -1.064837
64.450000 -1.065053 -1.064837
64.500000 -1.065055 -1.064837
64.550000 -1.065050 -1.064837
64.600000 -1.065041 -1.064837
64.650000 -1.065027 -1.064837
64.700000 -1.065008 -1.064837
64.750000 -1.064985 -1.064837
64.800000 -1.064959 -1.064837
64.850000 -1.064930 -1.064837
64.900000 -1.064899 -1.064837
64.950000 -1.064868 -1.064837
65.000000 -1.064836 -1.064837
65.050000 -1.064804 -1.064837
65.100000 -1.064774 -1.064837
65.150000 -1.064746 -1.064837
65.200000 -1.064720 -1.064837
65.250000 -1.064698 -1.064837
65.300000 -1.064680 -1.064837
65.350000 -1.064665 -1.064837
65.400000 -1.064656 -1.064837
65.450000 -1.064651 -1.064837
65.500000 -1.064650 -1.064837
65.550000 -1.064655 -1.064837
65.600000 -1.064663 -1.064837
65.650000 -1.064676 -1.064837
65.700000 -1.064693 -1.064837
65.750000 -1.064713 -1.064837
65.800000 -1.064736 -1.064837
65.850000 -1.064762 -1.064837
65.900000 -1.064788 -1.064837
65.950000 -1.064816 -1.064837
66.000000 -1.064843 -1.064837
66.050000 -1.064870 -1.064837
66.100000 -1.064896 -1.064837
66.150000 -1.064920 -1.064837
66.200000 -1.064941 -1.064837
66.250000 -1.064960 -1.064837
66.300000 -1.064975 -1.064837
66.350000 -1.064986 -1.064837
66.400000 -1.064994 -1.064837
66.450000 -1.064998 -1.064837
66.500000 -1.064997 -1.064837
66.550000 -1.064993 -1.064837
66.600000 -1.064985 -1.064837
66.650000 -1.064973 -1.064837
66.700000 -1.064958 -1.064837
66.750000 -1.064940 -1.064837
66.800000 -1.064920 -1.064837
66.850000 -1.064898 -1.064837
66.900000 -1.064875 -1.064837
66.950000 -1.064851 -1.064837
67.000000 -1.064828 -1.064837
67.050000 -1.064805 -1.064837
67.100000 -1.064783 -1.064837
67.150000 -1.064763 -1.064837
67.200000 -1.064745 -1.064837
67.250000 -1.064729 -1.064837
67.300000 -1.064717 -1.064837
67.350000 -1.064707 -1.064837
67.400000 -1.064701 -1.064837
67.450000 -1.064699 -1.064837
67.500000 -1.064700 -1.064837
67.550000 -1.064704 -1.064837
67.600000 -1.064712 -1.064837
67.650000 -1.064722 -1.064837
67.700000 -1.064736 -1.064837
67.750000 -1.064751 -1.064837
67.800000 -1.064769 -1.064837
67.850000 -1.064788 -1.064837
67.900000 -1.064808 -1.064837
67.950000 -1.064828 -1.064837
68.000000 -1.064848 -1.064837
68.050000 -1.064868 -1.064837
68.100000 -1.064887 -1.064837
68.150000 -1.064904 -1.064837
68.200000 -1.064919 -1.064837
68.250000 -1.064932 -1.064837
68.300000 -1.064942 -1.064837
68.350000 -1.064950 -1.064837
68.400000 -1.064954 -1.064837
68.450000 -1.064956 -1.064837
68.500000 -1.064955 -1.064837
68.550000 -1.064950 -1.064837
68.600000 -1.064943 -1.064837
68.650000 -1.064934 -1.064837
68.700000 -1.064922 -1.064837
68.750000 -1.064908 -1.064837
68.800000 -1.064893 -1.064837
68.850000 -1.064876 -1.064837
68.900000 -1.064859 -1.064837
68.950000 -1.064842 -1.064837
69.000000 -1.064824 -1.064837
69.050000 -1.064807 -1.064837
69.100000 -1.064792 -1.064837
69.150000 -1.064777 -1.064837
69.200000 -1.064765 -1.064837
69.250000 -1.064754 -1.064837
69.300000 -1.064745 -1.064837
69.350000 -1.064739 -1.064837
69.400000 -1.064736 -1.064837
69.450000 -1.064735 -1.064837
69.500000 -1.064736 -1.064837
69.550000 -1.064740 -1.064837
69.600000 -1.064747 -1.064837
69.650000 -1.064755 -1.064837
69.700000 -1.064766 -1.064837
69.750000 -1.064778 -1.064837
69.800000 -1.064791 -1.064837
69.850000 -1.064806 -1.064837
69.900000 -1.064821 -1.064837
69.950000 -1.064836 -1.064837
70.000000 -1.064851 -1.064837
70.050000 -1.064865 -1.064837
70.100000 -1.064878 -1.064837
70.150000 -1.064890 -1.064837
70.200000 -1.064901 -1.064837
70.250000 -1.064910 -1.064837
70.300000 -1.064917 -1.064837
70.350000 -1.064922 -1.064837
70.400000 -1.064925 -1.064837
70.450000 -1.064925 -1.064837
70.500000 -1.064923 -1.064837
70.550000 -1.064919 -1.064837
70.600000 -1.064913 -1.064837
70.650000 -1.064906 -1.064837
70.700000 -1.064897 -1.064837
70.750000 -1.064886 -1.064837
70.800000 -1.064874 -1.064837
70.850000 -1.064862 -1.064837
70.900000 -1.064849 -1.064837
70.950000 -1.064836 -1.064837
71.000000 -1.064823 -1.064837
71.050000 -1.064811 -1.064837
71.100000 -1.064800 -1.064837
71.150000 -1.064789 -1.064837
71.200000 -1.064780 -1.064837
71.250000 -1.064773 -1.064837
71.300000 -1.064767 -1.064837
71.350000 -1.064764 -1.064837
71.400000 -1.064762 -1.064837
71.450000 -1.064762 -1.064837
71.500000 -1.064763 -1.064837
71.550000 -1.064767 -1.064837
71.600000 -1.064772 -1.064837
71.650000 -1.064779 -1.064837
71.700000 -1.064787 -1.064837
71.750000 -1.064797 -1.064837
71.800000 -1.064807 -1.064837
71.850000 -1.064818 -1.064837
71.900000 -1.064829 -1.064837
71.950000 -1.064840 -1.064837
72.000000 -1.064851 -1.064837
72.050000 -1.064861 -1.064837
72.100000 -1.064871 -1.064837
72.150000 -1.064879 -1.064837
72.200000 -1.064887 -1.064837
72.250000 -1.064893 -1.064837
72.300000 -1.064898 -1.064837
72.350000 -1.064901 -1.064837
72.400000 -1.064902 -1.064837
72.450000 -1.064902 -1.064837
72.500000 -1.064900 -1.064837
72.550000 -1.064897 -1.064837
72.600000 -1.064892 -1.064837
72.650000 -1.064886 -1.064837
72.700000 -1.064878 -1.064837
72.750000 -1.064870 -1.064837
72.800000 -1.064861 -1.064837
72.850000 -1.064852 -1.064837
72.900000 -1.064843 -1.064837
72.950000 -1.064833 -1.064837
73.000000 -1.064824 -1.064837
73.050000 -1.064815 -1.064837
73.100000 -1.064807 -1.064837
73.150000 -1.064799 -1.064837
73.200000 -1.064793 -1.064837
73.250000 -1.064788 -1.064837
73.300000 -1.064784 -1.064837
73.350000 -1.064782 -1.064837
73.400000 -1.064781 -1.064837
73.450000 -1.064782 -1.064837
73.500000 -1.064783 -1.064837
73.550000 -1.064786 -1.064837
73.600000 -1.064791 -1.064837
73.650000 -1.064796 -1.064837
73.700000 -1.064803 -1.064837
73.750000 -1.064810 -1.064837
73.800000 -1.064817 -1.064837
73.850000 -1.064826 -1.064837
73.900000 -1.064834 -1.064837
73.950000 -1.064842 -1.064837
74.000000 -1.064850 -1.064837
74.050000 -1.064857 -1.064837
74.100000 -1.064864 -1.064837
74.150000 -1.064870 -1.064837
74.200000 -1.064876 -1.064837
74.250000 -1.064880 -1.064837
74.300000 -1.064883 -1.064837
74.350000 -1.064885 -1.064837
74.400000 -1.064885 -1.064837
74.450000 -1.064885 -1.064837
74.500000 -1.064883 -1.064837
74.550000 -1.064880 -1.064837
74.600000 -1.064876 -1.064837
74.650000 -1.064871 -1.064837
74.700000 -1.064866 -1.064837
74.750000 -1.064859 -1.064837
74.800000 -1.064853 -1.064837
74.850000 -1.064846 -1.064837
74.900000 -1.064839 -1.064837
74.950000 -1.064832 -1.064837
75.000000 -1.064825 -1.064837
75.050000 -1.064818 -1.064837
75.100000 -1.064813 -1.064837
75.150000 -1.064808 -1.064837
75.200000 -1.064803 -1.064837
75.250000 -1.064800 -1.064837
75.300000 -1.064797 -1.064837
75.350000 -1.064796 -1.064837
75.400000 -1.064796 -1.064837
75.450000 -1.064796 -1.064837
75.500000 -1.064798 -1.064837
75.550000 -1.064801 -1.064837
75.600000 -1.064804 -1.064837
75.650000 -1.064808 -1.064837
75.700000 -1.064813 -1.064837
75.750000 -1.064819 -1.064837
75.800000 -1.064825 -1.064837
75.850000 -1.064831 -1.064837
75.900000 -1.064837 -1.064837
75.950000 -1.064843 -1.064837
76.000000 -1.064848 -1.064837
76.050000 -1.064854 -1.064837
76.100000 -1.064859 -1.064837
76.150000 -1.064863 -1.064837
76.200000 -1.064867 -1.064837
76.250000 -1.064869 -1.064837
76.300000 -1.064871 -1.064837
76.350000 -1.064872 -1.064837
76.400000 -1.064873 -1.064837
76.450000 -1.064872 -1.064837
76.500000 -1.064870 -1.064837
76.550000 -1.064868 -1.064837
76.600000 -1.064865 -1.064837
76.650000 -1.064861 -1.064837
76.700000 -1.064857 -1.064837
76.750000 -1.064852 -1.064837
76.800000 -1.064847 -1.064837
76.850000 -1.064842 -1.064837
76.900000 -1.064836 -1.064837
76.950000 -1.064831 -1.064837
77.000000 -1.064826 -1.064837
77.050000 -1.064822 -1.064837
77.100000 -1.064818 -1.064837
77.150000 -1.064814 -1.064837
77.200000 -1.064811 -1.064837
77.250000 -1.064809 -1.064837
77.300000 -1.064807 -1.064837
77.350000 -1.064807 -1.064837
77.400000 -1.064807 -1.064837
77.450000 -1.064807 -1.064837
77.500000 -1.064809 -1.064837
77.550000 -1.064811 -1.064837
77.600000 -1.064814 -1.064837
77.650000 -1.064817 -1.064837
77.700000 -1.064821 -1.064837
77.750000 -1.064825 -1.064837
77.800000 -1.064829 -1.064837
77.850000 -1.064834 -1.064837
77.900000 -1.064838 -1.064837
77.950000 -1.064843 -1.064837
78.000000 -1.064847 -1.064837
78.050000 -1.064851 -1.064837
78.100000 -1.064854 -1.064837
78.150000 -1.064857 -1.064837
78.200000 -1.064860 -1.064837
78.250000 -1.064862 -1.064837
78.300000 -1.064863 -1.064837
78.350000 -1.064863 -1.064837
78.400000 -1.064863 -1.064837
78.450000 -1.064862 -1.064837
78.500000 -1.064861 -1.064837
78.550000 -1.064859 -1.064837
78.600000 -1.064857 -1.064837
78.650000 -1.064854 -1.064837
78.700000 -1.064850 -1.064837
78.750000 -1.064847 -1.064837
78.800000 -1.064843 -1.064837
78.850000 -1.064839 -1.064837
78.900000 -1.064835 -1.064837
78.950000 -1.064832 -1.064837
79.000000 -1.064828 -1.064837
79.050000 -1.064825 -1.064837
79.100000 -1.064822 -1.064837
79.150000 -1.064819 -1.064837
79.200000 -1.064817 -1.064837
79.250000 -1.064816 -1.064837
79.300000 -1.064815 -1.064837
79.350000 -1.064814 -1.064837
79.400000 -1.064815 -1.064837
79.450000 -1.064815 -1.064837
79.500000 -1.064817 -1.064837
79.550000 -1.064818 -1.064837
79.600000 -1.064821 -1.064837
79.650000 -1.064823 -1.064837
79.700000 -1.064826 -1.064837
79.750000 -1.064829 -1.064837
79.800000 -1.064832 -1.064837
79.850000 -1.064836 -1.064837
79.900000 -1.064839 -1.064837
79.950000 -1.064842 -1.064837
80.000000 -1.064845 -1.064837
80.050000 -1.064848 -1.064837
80.100000 -1.064851 -1.064837
80.150000 -1.064853 -1.064837
80.200000 -1.064854 -1.064837
80.250000 -1.064856 -1.064837
80.300000 -1.064856 -1.064837
80.350000 -1.064857 -1.064837
80.400000 -1.064856 -1.064837
80.450000 -1.064856 -1.064837
80.500000 -1.064854 -1.064837
80.550000 -1.064853 -1.064837
80.600000 -1.064851 -1.064837
80.650000 -1.064849 -1.064837
80.700000 -1.064846 -1.064837
80.750000 -1.064843 -1.064837
80.800000 -1.064840 -1.064837
80.850000 -1.064838 -1.064837
80.900000 -1.064835 -1.064837
80.950000 -1.064832 -1.064837
81.000000 -1.064829 -1.064837
81.050000 -1.064827 -1.064837
81.100000 -1.064825 -1.064837
81.150000 -1.064823 -1.064837
81.200000 -1.064822 -1.064837
81.250000 -1.064821 -1.064837
81.300000 -1.064820 -1.064837
81.350000 -1.064820 -1.064837
81.400000 -1.064821 -1.064837
81.450000 -1.064821 -1.064837
81.500000 -1.064822 -1.064837
81.550000 -1.064824 -1.064837
81.600000 -1.064826 -1.064837
81.650000 -1.064828 -1.064837
81.700000 -1.064830 -1.064837
81.750000 -1.064832 -1.064837
81.800000 -1.064835 -1.064837
81.850000 -1.064837 -1.064837
81.900000 -1.064839 -1.064837
81.950000 -1.064842 -1.064837
82.000000 -1.064844 -1.064837
82.050000 -1.064846 -1.064837
82.100000 -1.064848 -1.064837
82.150000 -1.064849 -1.064837
82.200000 -1.064850 -1.064837
82.250000 -1.064851 -1.064837
82.300000 -1.064851 -1.064837
82.350000 -1.064851 -1.064837
82.400000 -1.064851 -1.064837
82.450000 -1.064850 -1.064837
82.500000 -1.064849 -1.064837
82.550000 -1.064848 -1.064837
82.600000 -1.064847 -1.064837
82.650000 -1.064845 -1.064837
82.700000 -1.064843 -1.064837
82.750000 -1.064841 -1.064837
82.800000 -1.064839 -1.064837
82.850000 -1.064837 -1.064837
82.900000 -1.064835 -1.064837
82.950000 -1.064833 -1.064837
83.000000 -1.064831 -1.064837
83.050000 -1.064829 -1.064837
83.100000 -1.064828 -1.064837
83.150000 -1.064827 -1.064837
83.200000 -1.064826 -1.064837
83.250000 -1.064825 -1.064837
83.300000 -1.064825 -1.064837
83.350000 -1.064825 -1.064837
83.400000 -1.064825 -1.064837
83.450000 -1.064826 -1.064837
83.500000 -1.064827 -1.064837
83.550000 -1.064828 -1.064837
83.600000 -1.064829 -1.064837
83.650000 -1.064831 -1.064837
83.700000 -1.064832 -1.064837
83.750000 -1.064834 -1.064837
83.800000 -1.064836 -1.064837
83.850000 -1.064838 -1.064837
83.900000 -1.064839 -1.064837
83.950000 -1.064841 -1.064837
84.000000 -1.064843 -1.064837
84.050000 -1.064844 -1.064837
84.100000 -1.064845 -1.064837
84.150000 -1.064846 -1.064837
84.200000 -1.064847 -1.064837
84.250000 -1.064847 -1.064837
84.300000 -1.064848 -1.064837
84.350000 -1.064848 -1.064837
84.400000 -1.064847 -1.064837
84.450000 -1.064847 -1.064837
84.500000 -1.064846 -1.064837
84.550000 -1.064845 -1.064837
84.600000 -1.064844 -1.064837
84.650000 -1.064842 -1.064837
84.700000 -1.064841 -1.064837
84.750000 -1.064839 -1.064837
84.800000 -1.064838 -1.064837
84.850000 -1.064836 -1.064837
84.900000 -1.064835 -1.064837
84.950000 -1.064833 -1.064837
85.000000 -1.064832 -1.064837
85.050000 -1.064831 -1.064837
85.100000 -1.064830 -1.064837
85.150000 -1.064829 -1.064837
85.200000 -1.064828 -1.064837
85.250000 -1.064828 -1.064837
85.300000 -1.064828 -1.064837
85.350000 -1.064828 -1.064837
85.400000 -1.064828 -1.064837
85.450000 -1.064829 -1.064837
85.500000 -1.064830 -1.064837
85.550000 -1.064830 -1.064837
85.600000 -1.064831 -1.064837
85.650000 -1.064833 -1.064837
85.700000 -1.064834 -1.064837
85.750000 -1.064835 -1.064837
85.800000 -1.064837 -1.064837
85.850000 -1.064838 -1.064837
85.900000 -1.064839 -1.064837
85.950000 -1.064840 -1.064837
86.000000 -1.064842 -1.064837
86.050000 -1.064843 -1.064837
86.100000 -1.064843 -1.064837
86.150000 -1.064844 -1.064837
86.200000 -1.064845 -1.064837
86.250000 -1.064845 -1.064837
86.300000 -1.064845 -1.064837
86.350000 -1.064845 -1.064837
86.400000 -1.064844 -1.064837
86.450000 -1.064844 -1.064837
86.500000 -1.064843 -1.064837
86.550000 -1.064843 -1.064837
86.600000 -1.064842 -1.064837
86.650000 -1.064841 -1.064837
86.700000 -1.064840 -1.064837
86.750000 -1.064838 -1.064837
86.800000 -1.064837 -1.064837
86.850000 -1.064836 -1.064837
86.900000 -1.064835 -1.064837
86.950000 -1.064834 -1.064837
87.000000 -1.064833 -1.064837
87.050000 -1.064832 -1.064837
87.100000 -1.064831 -1.064837
87.150000 -1.064831 -1.064837
87.200000 -1.064831 -1.064837
87.250000 -1.064830 -1.064837
87.300000 -1.064830 -1.064837
87.350000 -1.064830 -1.064837
87.400000 -1.064831 -1.064837
87.450000 -1.064831 -1.064837
87.500000 -1.064832 -1.064837
87.550000 -1.064832 -1.064837
87.600000 -1.064833 -1.064837
87.650000 -1.064834 -1.064837
87.700000 -1.064835 -1.064837
87.750000 -1.064836 -1.064837
87.800000 -1.064837 -1.064837
87.850000 -1.064838 -1.064837
87.900000 -1.064839 -1.064837
87.950000 -1.064840 -1.064837
88.000000 -1.064841 -1.064837
88.050000 -1.064841 -1.064837
88.100000 -1.064842 -1.064837
88.150000 -1.064842 -1.064837
88.200000 -1.064843 -1.064837
88.250000 -1.064843 -1.064837
88.300000 -1.064843 -1.064837
88.350000 -1.064843 -1.064837
88.400000 -1.064842 -1.064837
88.450000 -1.064842 -1.064837
88.500000 -1.064842 -1.064837
88.550000 -1.064841 -1.064837
88.600000 -1.064840 -1.064837
88.650000 -1.064839 -1.064837
88.700000 -1.064839 -1.064837
88.750000 -1.064838 -1.064837
88.800000 -1.064837 -1.064837
88.850000 -1.064836 -1.064837
88.900000 -1.064835 -1.064837
88.950000 -1.064834 -1.064837
89.000000 -1.064834 -1.064837
89.050000 -1.064833 -1.064837
89.100000 -1.064833 -1.064837
89.150000 -1.064832 -1.064837
89.200000 -1.064832 -1.064837
89.250000 -1.064832 -1.064837
89.300000 -1.064832 -1.064837
89.350000 -1.064832 -1.064837
89.400000 -1.064832 -1.064837
89.450000 -1.064833 -1.064837
89.500000 -1.064833 -1.064837
89.550000 -1.064834 -1.064837
89.600000 -1.064834 -1.064837
89.650000 -1.064835 -1.064837
89.700000 -1.064836 -1.064837
89.750000 -1.064837 -1.064837
89.800000 -1.064837 -1.064837
89.850000 -1.064838 -1.064837
89.900000 -1.064839 -1.064837
89.950000 -1.064839 -1.064837
90.000000 -1.064840 -1.064837
90.050000 -1.064840 -1.064837
90.100000 -1.064841 -1.064837
90.150000 -1.064841 -1.064837
90.200000 -1.064841 -1.064837
90.250000 -1.064841 -1.064837
90.300000 -1.064841 -1.064837
90.350000 -1.064841 -1.064837
90.400000 -1.064841 -1.064837
90.450000 -1.064841 -1.064837
90.500000 -1.064840 -1.064837
90.550000 -1.064840 -1.064837
90.600000 -1.064839 -1.064837
90.650000 -1.064839 -1.064837
90.700000 -1.064838 -1.064837
90.750000 -1.064837 -1.064837
90.800000 -1.064837 -1.064837
90.850000 -1.064836 -1.064837
90.900000 -1.064836 -1.064837
90.950000 -1.064835 -1.064837
91.000000 -1.064835 -1.064837
91.050000 -1.064834 -1.064837
91.100000 -1.064834 -1.064837
91.150000 -1.064834 -1.064837
91.200000 -1.064833 -1.064837
91.250000 -1.064833 -1.064837
91.300000 -1.064833 -1.064837
91.350000 -1.064834 -1.064837
91.400000 -1.064834 -1.064837
91.450000 -1.064834 -1.064837
91.500000 -1.064834 -1.064837
91.550000 -1.064835 -1.064837
91.600000 -1.064835 -1.064837
91.650000 -1.064836 -1.064837
91.700000 -1.064836 -1.064837
91.750000 -1.064837 -1.064837
91.800000 -1.064837 -1.064837
91.850000 -1.064838 -1.064837
91.900000 -1.064838 -1.064837
91.950000 -1.064839 -1.064837
92.000000 -1.064839 -1.064837
92.050000 -1.064840 -1.064837
92.100000 -1.064840 -1.064837
92.150000 -1.064840 -1.064837
92.200000 -1.064840 -1.064837
92.250000 -1.064840 -1.064837
92.300000 -1.064840 -1.064837
92.350000 -1.064840 -1.064837
92.400000 -1.064840 -1.064837
92.450000 -1.064840 -1.064837
92.500000 -1.064839 -1.064837
92.550000 -1.064839 -1.064837
92.600000 -1.064838 -1.064837
92.650000 -1.064838 -1.064837
92.700000 -1.064838 -1.064837
92.750000 -1.064837 -1.064837
92.800000 -1.064837 -1.064837
92.850000 -1.064836 -1.064837
92.900000 -1.064836 -1.064837
92.950000 -1.064835 -1.064837
93.000000 -1.064835 -1.064837
93.050000 -1.064835 -1.064837
93.100000 -1.064835 -1.064837
93.150000 -1.064834 -1.064837
93.200000 -1.064834 -1.064837
93.250000 -1.064834 -1.064837
93.300000 -1.064834 -1.064837
93.350000 -1.064834 -1.064837
93.400000 -1.064835 -1.064837
93.450000 -1.064835 -1.064837
93.500000 -1.064835 -1.064837
93.550000 -1.064836 -1.064837
93.600000 -1.064836 -1.064837
93.650000 -1.064836 -1.064837
93.700000 -1.064837 -1.064837
93.750000 -1.064837 -1.064837
93.800000 -1.064837 -1.064837
93.850000 -1.064838 -1.064837
93.900000 -1.064838 -1.064837
93.950000 -1.064839 -1.064837
94.000000 -1.064839 -1.064837
94.050000 -1.064839 -1.064837
94.100000 -1.064839 -1.064837
94.150000 -1.064839 -1.064837
94.200000 -1.064839 -1.064837
94.250000 -1.064839 -1.064837
94.300000 -1.064839 -1.064837
94.350000 -1.064839 -1.064837
94.400000 -1.064839 -1.064837
94.450000 -1.064839 -1.064837
94.500000 -1.064839 -1.064837
94.550000 -1.064838 -1.064837
94.600000 -1.064838 -1.064837
94.650000 -1.064838 -1.064837
94.700000 -1.064837 -1.064837
94.750000 -1.064837 -1.064837
94.800000 -1.064837 -1.064837
94.850000 -1.064836 -1.064837
94.900000 -1.064836 -1.064837
94.950000 -1.064836 -1.064837
95.000000 -1.064835 -1.064837
95.050000 -1.064835 -1.064837
95.100000 -1.064835 -1.064837
95.150000 -1.064835 -1.064837
95.200000 -1.064835 -1.064837
95.250000 -1.064835 -1.064837
95.300000 -1.064835 -1.064837
95.350000 -1.064835 -1.064837
95.400000 -1.064835 -1.064837
95.450000 -1.064836 -1.064837
95.500000 -1.064836 -1.064837
95.550000 -1.064836 -1.064837
95.600000 -1.064836 -1.064837
95.650000 -1.064837 -1.064837
95.700000 -1.064837 -1.064837
95.750000 -1.064837 -1.064837
95.800000 -1.064837 -1.064837
95.850000 -1.064838 -1.064837
95.900000 -1.064838 -1.064837
95.950000 -1.064838 -1.064837
96.000000 -1.064838 -1.064837
96.050000 -1.064839 -1.064837
96.100000 -1.064839 -1.064837
96.150000 -1.064839 -1.064837
96.200000 -1.064839 -1.064837
96.250000 -1.064839 -1.064837
96.300000 -1.064839 -1.064837
96.350000 -1.064839 -1.064837
96.400000 -1.064838 -1.064837
96.450000 -1.064838 -1.064837
96.500000 -1.064838 -1.064837
96.550000 -1.064838 -1.064837
96.600000 -1.064838 -1.064837
96.650000 -1.064837 -1.064837
96.700000 -1.064837 -1.064837
96.750000 -1.064837 -1.064837
96.800000 -1.064837 -1.064837
96.850000 -1.064836 -1.064837
96.900000 -1.064836 -1.064837
96.950000 -1.064836 -1.064837
97.000000 -1.064836 -1.064837
97.050000 -1.064836 -1.064837
97.100000 -1.064836 -1.064837
97.150000 -1.064836 -1.064837
97.200000 -1.064836 -1.064837
97.250000 -1.064836 -1.064837
97.300000 -1.064836 -1.064837
97.350000 -1.064836 -1.064837
97.400000 -1.064836 -1.064837
97.450000 -1.064836 -1.064837
97.500000 -1.064836 -1.064837
97.550000 -1.064836 -1.064837
97.600000 -1.064837 -1.064837
97.650000 -1.064837 -1.064837
97.700000 -1.064837 -1.064837
97.750000 -1.064837 -1.064837
97.800000 -1.064837 -1.064837
97.850000 -1.064838 -1.064837
97.900000 -1.064838 -1.064837
97.950000 -1.064838 -1.064837
98.000000 -1.064838 -1.064837
98.050000 -1.064838 -1.064837
98.100000 -1.064838 -1.064837
98.150000 -1.064838 -1.064837
98.200000 -1.064838 -1.064837
98.250000 -1.064838 -1.064837
98.300000 -1.064838 -1.064837
98.350000 -1.064838 -1.064837
98.400000 -1.064838 -1.064837
98.450000 -1.064838 -1.064837
98.500000 -1.064838 -1.064837
98.550000 -1.064838 -1.064837
98.600000 -1.064837 -1.064837
98.650000 -1.064837 -1.064837
98.700000 -1.064837 -1.064837
98.750000 -1.064837 -1.064837
98.800000 -1.064837 -1.064837
98.850000 -1.064837 -1.064837
98.900000 -1.064836 -1.064837
98.950000 -1.064836 -1.064837
99.000000 -1.064836 -1.064837
99.050000 -1.064836 -1.064837
99.100000 -1.064836 -1.064837
99.150000 -1.064836 -1.064837
99.200000 -1.064836 -1.064837
99.250000 -1.064836 -1.064837
99.300000 -1.064836 -1.064837
99.350000 -1.064836 -1.064837
99.400000 -1.064836 -1.064837
99.450000 -1.064836 -1.064837
99.500000 -1.064836 -1.064837
99.550000 -1.064837 -1.064837
99.600000 -1.064837 -1.064837
99.650000 -1.064837 -1.064837
99.700000 -1.064837 -1.064837
99.750000 -1.064837 -1.064837
99.800000 -1.064837 -1.064837
99.850000 -1.064838 -1.064837
99.900000 -1.064838 -1.064837
99.950000 -1.064838 -1.064837
100.000000 -1.064838 -1.064837
100.050000 -1.064838 -1.064837
100.100000 -1.064838 -1.064837
100.150000 -1.064838 -1.064837
100.200000 -1.064838 -1.064837
100.250000 -1.064838 -1.064837
100.300000 -1.064838 -1.064837
100.350000 -1.064838 -1.064837
100.400000 -1.064838 -1.064837
100.450000 -1.064838 -1.064837
100.500000 -1.064838 -1.064837
100.550000 -1.064837 -1.064837
100.600000 -1.064837 -1.064837
100.650000 -1.064837 -1.064837
100.700000 -1.064837 -1.064837
100.750000 -1.064837 -1.064837
100.800000 -1.064837 -1.064837
100.850000 -1.064837 -1.064837
100.900000 -1.064837 -1.064837
100.950000 -1.064836 -1.064837
101.000000 -1.064836 -1.064837
101.050000 -1.064836 -1.064837
101.100000 -1.064836 -1.064837
101.150000 -1.064836 -1.064837
101.200000 -1.064836 -1.064837
101.250000 -1.064836 -1.064837
101.300000 -1.064836 -1.064837
101.350000 -1.064836 -1.064837
101.400000 -1.064836 -1.064837
101.450000 -1.064837 -1.064837
101.500000 -1.064837 -1.064837
101.550000 -1.064837 -1.064837
101.600000 -1.064837 -1.064837
101.650000 -1.064837 -1.064837
101.700000 -1.064837 -1.064837
101.750000 -1.064837 -1.064837
101.800000 -1.064837 -1.064837
101.850000 -1.064837 -1.064837
101.900000 -1.064838 -1.064837
101.950000 -1.064838 -1.064837
102.000000 -1.064838 -1.064837
102.050000 -1.064838 -1.064837
102.100000 -1.064838 -1.064837
102.150000 -1.064838 -1.064837
102.200000 -1.064838 -1.064837
102.250000 -1.064838 -1.064837
102.300000 -1.064838 -1.064837
102.350000 -1.064838 -1.064837
102.400000 -1.064838 -1.064837
102.450000 -1.064837 -1.064837
102.500000 -1.064837 -1.064837
102.550000 -1.064837 -1.064837
102.600000 -1.064837 -1.064837
102.650000 -1.064837 -1.064837
102.700000 -1.064837 -1.064837
102.750000 -1.064837 -1.064837
102.800000 -1.064837 -1.064837
102.850000 -1.064837 -1.064837
102.900000 -1.064837 -1.064837
102.950000 -1.064837 -1.064837
103.000000 -1.064837 -1.064837
103.050000 -1.064836 -1.064837
103.100000 -1.064836 -1.064837
103.150000 -1.064836 -1.064837
103.200000 -1.064836 -1.064837
103.250000 -1.064836 -1.064837
103.300000 -1.064837 -1.064837
103.350000 -1.064837 -1.064837
103.400000 -1.064837 -1.064837
103.450000 -1.064837 -1.064837
103.500000 -1.064837 -1.064837
103.550000 -1.064837 -1.064837
103.600000 -1.064837 -1.064837
103.650000 -1.064837 -1.064837
103.700000 -1.064837 -1.064837
103.750000 -1.064837 -1.064837
103.800000 -1.064837 -1.064837
103.850000 -1.064837 -1.064837
103.900000 -1.064837 -1.064837
103.950000 -1.064837 -1.064837
104.000000 -1.064838 -1.064837
104.050000 -1.064838 -1.064837
104.100000 -1.064838 -1.064837
104.150000 -1.064838 -1.064837
104.200000 -1.064838 -1.064837
104.250000 -1.064838 -1.064837
104.300000 -1.064837 -1.064837
104.350000 -1.064837 -1.064837
104.400000 -1.064837 -1.064837
104.450000 -1.064837 -1.064837
104.500000 -1.064837 -1.064837
104.550000 -1.064837 -1.064837
104.600000 -1.064837 -1.064837
104.650000 -1.064837 -1.064837
104.700000 -1.064837 -1.064837
104.750000 -1.064837 -1.064837
104.800000 -1.064837 -1.064837
104.850000 -1.064837 -1.064837
104.900000 -1.064837 -1.064837
104.950000 -1.064837 -1.064837
105.000000 -1.064837 -1.064837
105.050000 -1.064837 -1.064837
105.100000 -1.064837 -1.064837
105.150000 -1.064837 -1.064837
105.200000 -1.064837 -1.064837
105.250000 -1.064837 -1.064837
105.300000 -1.064837 -1.064837
105.350000 -1.064837 -1.064837
105.400000 -1.064837 -1.064837
105.450000 -1.064837 -1.064837
105.500000 -1.064837 -1.064837
105.550000 -1.064837 -1.064837
105.600000 -1.064837 -1.064837
105.650000 -1.064837 -1.064837
105.700000 -1.064837 -1.064837
105.750000 -1.064837 -1.064837
105.800000 -1.064837 -1.064837
105.850000 -1.064837 -1.064837
105.900000 -1.064837 -1.064837
105.950000 -1.064837 -1.064837
106.000000 -1.064837 -1.064837
106.050000 -1.064837 -1.064837
106.100000 -1.064837 -1.064837
106.150000 -1.064837 -1.064837
106.200000 -1.064837 -1.064837
106.250000 -1.064837 -1.064837
106.300000 -1.064837 -1.064837
106.350000 -1.064837 -1.064837
106.400000 -1.064837 -1.064837
106.450000 -1.064837 -1.064837
106.500000 -1.064837 -1.064837
106.550000 -1.064837 -1.064837
106.600000 -1.064837 -1.064837
106.650000 -1.064837 -1.064837
106.700000 -1.064837 -1.064837
106.750000 -1.064837 -1.064837
106.800000 -1.064837 -1.064837
106.850000 -1.064837 -1.064837
106.900000 -1.064837 -1.064837
106.950000 -1.064837 -1.064837
107.000000 -1.064837 -1.064837
107.050000 -1.064837 -1.064837
107.100000 -1.064837 -1.064837
107.150000 -1.064837 -1.064837
107.200000 -1.064837 -1.064837
107.250000 -1.064837 -1.064837
107.300000 -1.064837 -1.064837
107.350000 -1.064837 -1.064837
107.400000 -1.064837 -1.064837
107.450000 -1.064837 -1.064837
107.500000 -1.064837 -1.064837
107.550000 -1.064837 -1.064837
107.600000 -1.064837 -1.064837
107.650000 -1.064837 -1.064837
107.700000 -1.064837 -1.064837
107.750000 -1.064837 -1.064837
107.800000 -1.064837 -1.064837
107.850000 -1.064837 -1.064837
107.900000 -1.064837 -1.064837
107.950000 -1.064837 -1.064837
108.000000 -1.064837 -1.064837
108.050000 -1.064837 -1.064837
108.100000 -1.064837 -1.064837
108.150000 -1.064837 -1.064837
108.200000 -1.064837 -1.064837
108.250000 -1.064837 -1.064837
108.300000 -1.064837 -1.064837
108.350000 -1.064837 -1.064837
108.400000 -1.064837 -1.064837
108.450000 -1.064837 -1.064837
108.500000 -1.064837 -1.064837
108.550000 -1.064837 -1.064837
108.600000 -1.064837 -1.064837
108.650000 -1.064837 -1.064837
108.700000 -1.064837 -1.064837
108.750000 -1.064837 -1.064837
108.800000 -1.064837 -1.064837
108.850000 -1.064837 -1.064837
108.900000 -1.064837 -1.064837
108.950000 -1.064837 -1.064837
109.000000 -1.064837 -1.064837
109.050000 -1.064837 -1.064837
109.100000 -1.064837 -1.064837
109.150000 -1.064837 -1.064837
109.200000 -1.064837 -1.064837
109.250000 -1.064837 -1.064837
109.300000 -1.064837 -1.064837
109.350000 -1.064837 -1.064837
109.400000 -1.064837 -1.064837
109.450000 -1.064837 -1.064837
109.500000 -1.064837 -1.064837
109.550000 -1.064837 -1.064837
109.600000 -1.064837 -1.064837
109.650000 -1.064837 -1.064837
109.700000 -1.064837 -1.064837
109.750000 -1.064837 -1.064837
109.800000 -1.064837 -1.064837
109.850000 -1.064837 -1.064837
109.900000 -1.064837 -1.064837
109.950000 -1.064837 -1.064837
110.000000 -1.064837 -1.064837
110.050000 -1.064837 -1.064837
110.100000 -1.064837 -1.064837
110.150000 -1.064837 -1.064837
110.200000 -1.064837 -1.064837
110.250000 -1.064837 -1.064837
110.300000 -1.064837 -1.064837
110.350000 -1.064837 -1.064837
110.400000 -1.064837 -1.064837
110.450000 -1.064837 -1.064837
110.500000 -1.064837 -1.064837
110.550000 -1.064837 -1.064837
110.600000 -1.064837 -1.064837
110.650000 -1.064837 -1.064837
110.700000 -1.064837 -1.064837
110.750000 -1.064837 -1.064837
110.800000 -1.064837 -1.064837
110.850000 -1.064837 -1.064837
110.900000 -1.064837 -1.064837
110.950000 -1.064837 -1.064837
111.000000 -1.064837 -1.064837
111.050000 -1.064837 -1.064837
111.100000 -1.064837 -1.064837
111.150000 -1.064837 -1.064837
111.200000 -1.064837 -1.064837
111.250000 -1.064837 -1.064837
111.300000 -1.064837 -1.064837
111.350000 -1.064837 -1.064837
111.400000 -1.064837 -1.064837
111.450000 -1.064837 -1.064837
111.500000 -1.064837 -1.064837
111.550000 -1.064837 -1.064837
111.600000 -1.064837 -1.064837
111.650000 -1.064837 -1.064837
111.700000 -1.064837 -1.064837
111.750000 -1.064837 -1.064837
111.800000 -1.064837 -1.064837
111.850000 -1.064837 -1.064837
111.900000 -1.064837 -1.064837
111.950000 -1.064837 -1.064837
112.000000 -1.064837 -1.064837
112.050000 -1.064837 -1.064837
112.100000 -1.064837 -1.064837
112.150000 -1.064837 -1.064837
112.200000 -1.064837 -1.064837
112.250000 -1.064837 -1.064837
112.300000 -1.064837 -1.064837
112.350000 -1.064837 -1.064837
112.400000 -1.064837 -1.064837
112.450000 -1.064837 -1.064837
112.500000 -1.064837 -1.064837
112.550000 -1.064837 -1.064837
112.600000 -1.064837 -1.064837
112.650000 -1.064837 -1.064837
112.700000 -1.064837 -1.064837
112.750000 -1.064837 -1.064837
112.800000 -1.064837 -1.064837
112.850000 -1.064837 -1.064837
112.900000 -1.064837 -1.064837
112.950000 -1.064837 -1.064837
113.000000 -1.064837 -1.064837
113.050000 -1.064837 -1.064837
113.100000 -1.064837 -1.064837
113.150000 -1.064837 -1.064837
113.200000 -1.064837 -1.064837
113.250000 -1.064837 -1.064837
113.300000 -1.064837 -1.064837
113.350000 -1.064837 -1.064837
113.400000 -1.064837 -1.064837
113.450000 -1.064837 -1.064837
113.500000 -1.064837 -1.064837
113.550000 -1.064837 -1.064837
113.600000 -1.064837 -1.064837
113.650000 -1.064837 -1.064837
113.700000 -1.064837 -1.064837
113.750000 -1.064837 -1.064837
113.800000 -1.064837 -1.064837
113.850000 -1.064837 -1.064837
113.900000 -1.064837 -1.064837
113.950000 -1.064837 -1.064837
114.000000 -1.064837 -1.064837
114.050000 -1.064837 -1.064837
114.100000 -1.064837 -1.064837
114.150000 -1.064837 -1.064837
114.200000 -1.064837 -1.064837
114.250000 -1.064837 -1.064837
114.300000 -1.064837 -1.064837
114.350000 -1.064837 -1.064837
114.400000 -1.064837 -1.064837
114.450000 -1.064837 -1.064837
114.500000 -1.064837 -1.064837
114.550000 -1.064837 -1.064837
114.600000 -1.064837 -1.064837
114.650000 -1.064837 -1.064837
114.700000 -1.064837 -1.064837
114.750000 -1.064837 -1.064837
114.800000 -1.064837 -1.064837
114.850000 -1.064837 -1.064837
114.900000 -1.064837 -1.064837
114.950000 -1.064837 -1.064837
115.000000 -1.064837 -1.064837
115.050000 -1.064837 -1.064837
115.100000 -1.064837 -1.064837
115.150000 -1.064837 -1.064837
115.200000 -1.064837 -1.064837
115.250000 -1.064837 -1.064837
115.300000 -1.064837 -1.064837
115.350000 -1.064837 -1.064837
115.400000 -1.064837 -1.064837
115.450000 -1.064837 -1.064837
115.500000 -1.064837 -1.064837
115.550000 -1.064837 -1.064837
115.600000 -1.064837 -1.064837
115.650000 -1.064837 -1.064837
115.700000 -1.064837 -1.064837
115.750000 -1.064837 -1.064837
115.800000 -1.064837 -1.064837
115.850000 -1.064837 -1.064837
115.900000 -1.064837 -1.064837
115.950000 -1.064837 -1.064837
116.000000 -1.064837 -1.064837
116.050000 -1.064837 -1.064837
116.100000 -1.064837 -1.064837
116.150000 -1.064837 -1.064837
116.200000 -1.064837 -1.064837
116.250000 -1.064837 -1.064837
116.300000 -1.064837 -1.064837
116.350000 -1.064837 -1.064837
116.400000 -1.064837 -1.064837
116.450000 -1.064837 -1.064837
116.500000 -1.064837 -1.064837
116.550000 -1.064837 -1.064837
116.600000 -1.064837 -1.064837
116.650000 -1.064837 -1.064837
116.700000 -1.064837 -1.064837
116.750000 -1.064837 -1.064837
116.800000 -1.064837 -1.064837
116.850000 -1.064837 -1.064837
116.900000 -1.064837 -1.064837
116.950000 -1.064837 -1.064837
117.000000 -1.064837 -1.064837
117.050000 -1.064837 -1.064837
117.100000 -1.064837 -1.064837
117.150000 -1.064837 -1.064837
117.200000 -1.064837 -1.064837
117.250000 -1.064837 -1.064837
117.300000 -1.064837 -1.064837
117.350000 -1.064837 -1.064837
117.400000 -1.064837 -1.064837
117.450000 -1.064837 -1.064837
117.500000 -1.064837 -1.064837
117.550000 -1.064837 -1.064837
117.600000 -1.064837 -1.064837
117.650000 -1.064837 -1.064837
117.700000 -1.064837 -1.064837
117.750000 -1.064837 -1.064837
117.800000 -1.064837 -1.064837
117.850000 -1.064837 -1.064837
117.900000 -1.064837 -1.064837
117.950000 -1.064837 -1.064837
118.000000 -1.064837 -1.064837
118.050000 -1.064837 -1.064837
118.100000 -1.064837 -1.064837
118.150000 -1.064837 -1.064837
118.200000 -1.064837 -1.064837
118.250000 -1.064837 -1.064837
118.300000 -1.064837 -1.064837
118.350000 -1.064837 -1.064837
118.400000 -1.064837 -1.064837
118.450000 -1.064837 -1.064837
118.500000 -1.064837 -1.064837
118.550000 -1.064837 -1.064837
118.600000 -1.064837 -1.064837
118.650000 -1.064837 -1.064837
118.700000 -1.064837 -1.064837
118.750000 -1.064837 -1.064837
118.800000 -1.064837 -1.064837
118.850000 -1.064837 -1.064837
118.900000 -1.064837 -1.064837
118.950000 -1.064837 -1.064837
119.000000 -1.064837 -1.064837
119.050000 -1.064837 -1.064837
119.100000 -1.064837 -1.064837
119.150000 -1.064837 -1.064837
119.200000 -1.064837 -1.064837
119.250000 -1.064837 -1.064837
119.300000 -1.064837 -1.064837
119.350000 -1.064837 -1.064837
119.400000 -1.064837 -1.064837
119.450000 -1.064837 -1.064837
119.500000 -1.064837 -1.064837
119.550000 -1.064837 -1.064837
119.600000 -1.064837 -1.064837
119.650000 -1.064837 -1.064837
119.700000 -1.064837 -1.064837
119.750000 -1.064837 -1.064837
119.800000 -1.064837 -1.064837
119.850000 -1.064837 -1.064837
119.900000 -1.064837 -1.064837
119.950000 -1.064837 -1.064837
120.000000 -1.064837 -1.064837
120.050000 -1.064837 -1.064837
120.100000 -1.064837 -1.064837
120.150000 -1.064837 -1.064837
120.200000 -1.064837 -1.064837
120.250000 -1.064837 -1.064837
120.300000 -1.064837 -1.064837
120.350000 -1.064837 -1.064837
120.400000 -1.064837 -1.064837
120.450000 -1.064837 -1.064837
120.500000 -1.064837 -1.064837
120.550000 -1.064837 -1.064837
120.600000 -1.064837 -1.064837
120.650000 -1.064837 -1.064837
120.700000 -1.064837 -1.064837
120.750000 -1.064837 -1.064837
120.800000 -1.064837 -1.064837
120.850000 -1.064837 -1.064837
120.900000 -1.064837 -1.064837
120.950000 -1.064837 -1.064837
121.000000 -1.064837 -1.064837
121.050000 -1.064837 -1.064837
121.100000 -1.064837 -1.064837
121.150000 -1.064837 -1.064837
121.200000 -1.064837 -1.064837
121.250000 -1.064837 -1.064837
121.300000 -1.064837 -1.064837
121.350000 -1.064837 -1.064837
121.400000 -1.064837 -1.064837
121.450000 -1.064837 -1.064837
121.500000 -1.064837 -1.064837
121.550000 -1.064837 -1.064837
121.600000 -1.064837 -1.064837
121.650000 -1.064837 -1.064837
121.700000 -1.064837 -1.064837
121.750000 -1.064837 -1.064837
121.800000 -1.064837 -1.064837
121.850000 -1.064837 -1.064837
121.900000 -1.064837 -1.064837
121.950000 -1.064837 -1.064837
122.000000 -1.064837 -1.064837
122.050000 -1.064837 -1.064837
122.100000 -1.064837 -1.064837
122.150000 -1.064837 -1.064837
122.200000 -1.064837 -1.064837
122.250000 -1.064837 -1.064837
122.300000 -1.064837 -1.064837
122.350000 -1.064837 -1.064837
122.400000 -1.064837 -1.064837
122.450000 -1.064837 -1.064837
122.500000 -1.064837 -1.064837
122.550000 -1.064837 -1.064837
122.600000 -1.064837 -1.064837
122.650000 -1.064837 -1.064837
122.700000 -1.064837 -1.064837
122.750000 -1.064837 -1.064837
122.800000 -1.064837 -1.064837
122.850000 -1.064837 -1.064837
122.900000 -1.064837 -1.064837
122.950000 -1.064837 -1.064837
123.000000 -1.064837 -1.064837
123.050000 -1.064837 -1.064837
123.100000 -1.064837 -1.064837
123.150000 -1.064837 -1.064837
123.200000 -1.064837 -1.064837
123.250000 -1.064837 -1.064837
123.300000 -1.064837 -1.064837
123.350000 -1.064837 -1.064837
123.400000 -1.064837 -1.064837
123.450000 -1.064837 -1.064837
123.500000 -1.064837 -1.064837
123.550000 -1.064837 -1.064837
123.600000 -1.064837 -1.064837
123.650000 -1.064837 -1.064837
123.700000 -1.064837 -1.064837
123.750000 -1.064837 -1.064837
123.800000 -1.064837 -1.064837
123.850000 -1.064837 -1.064837
123.900000 -1.064837 -1.064837
123.950000 -1.064837 -1.064837
124.000000 -1.064837 -1.064837
124.050000 -1.064837 -1.064837
124.100000 -1.064837 -1.064837
124.150000 -1.064837 -1.064837
124.200000 -1.064837 -1.064837
124.250000 -1.064837 -1.064837
124.300000 -1.064837 -1.064837
124.350000 -1.064837 -1.064837
124.400000 -1.064837 -1.064837
124.450000 -1.064837 -1.064837
124.500000 -1.064837 -1.064837
124.550000 -1.064837 -1.064837
124.600000 -1.064837 -1.064837
124.650000 -1.064837 -1.064837
124.700000 -1.064837 -1.064837
124.750000 -1.064837 -1.064837
124.800000 -1.064837 -1.064837
124.850000 -1.064837 -1.064837
124.900000 -1.064837 -1.064837
124.950000 -1.064837 -1.064837
125.000000 -1.064837 -1.064837
125.050000 -1.064837 -1.064837
125.100000 -1.064837 -1.064837
125.150000 -1.064837 -1.064837
125.200000 -1.064837 -1.064837
125.250000 -1.064837 -1.064837
125.300000 -1.064837 -1.064837
125.350000 -1.064837 -1.064837
125.400000 -1.064837 -1.064837
125.450000 -1.064837 -1.064837
125.500000 -1.064837 -1.064837
125.550000 -1.064837 -1.064837
125.600000 -1.064837 -1.064837
125.650000 -1.064837 -1.064837
125.700000 -1.064837 -1.064837
125.750000 -1.064837 -1.064837
125.800000 -1.064837 -1.064837
125.850000 -1.064837 -1.064837
125.900000 -1.064837 -1.064837
125.950000 -1.064837 -1.064837
126.000000 -1.064837 -1.064837
126.050000 -1.064837 -1.064837
126.100000 -1.064837 -1.064837
126.150000 -1.064837 -1.064837
126.200000 -1.064837 -1.064837
126.250000 -1.064837 -1.064837
126.300000 -1.064837 -1.064837
126.350000 -1.064837 -1.064837
126.400000 -1.064837 -1.064837
126.450000 -1.064837 -1.064837
126.500000 -1.064837 -1.064837
126.550000 -1.064837 -1.064837
126.600000 -1.064837 -1.064837
126.650000 -1.064837 -1.064837
126.700000 -1.064837 -1.064837
126.750000 -1.064837 -1.064837
126.800000 -1.064837 -1.064837
126.850000 -1.064837 -1.064837
126.900000 -1.064837 -1.064837
126.950000 -1.064837 -1.064837
127.000000 -1.064837 -1.064837
127.050000 -1.064837 -1.064837
127.100000 -1.064837 -1.064837
127.150000 -1.064837 -1.064837
127.200000 -1.064837 -1.064837
127.250000 -1.064837 -1.064837
127.300000 -1.064837 -1.064837
127.350000 -1.064837 -1.064837
127.400000 -1.064837 -1.064837
127.450000 -1.064837 -1.064837
127.500000 -1.064837 -1.064837
127.550000 -1.064837 -1.064837
127.600000 -1.064837 -1.064837
127.650000 -1.064837 -1.064837
127.700000 -1.064837 -1.064837
127.750000 -1.064837 -1.064837
127.800000 -1.064837 -1.064837
127.850000 -1.064837 -1.064837
127.900000 -1.064837 -1.064837
127.950000 -1.064837 -1.064837
128.000000 -1.064837 -1.064837
128.050000 -1.064837 -1.064837
128.100000 -1.064837 -1.064837
128.150000 -1.064837 -1.064837
128.200000 -1.064837 -1.064837
128.250000 -1.064837 -1.064837
128.300000 -1.064837 -1.064837
128.350000 -1.064837 -1.064837
128.400000 -1.064837 -1.064837
128.450000 -1.064837 -1.064837
128.500000 -1.064837 -1.064837
128.550000 -1.064837 -1.064837
128.600000 -1.064837 -1.064837
128.650000 -1.064837 -1.064837
128.700000 -1.064837 -1.064837
128.750000 -1.064837 -1.064837
128.800000 -1.064837 -1.064837
128.850000 -1.064837 -1.064837
128.900000 -1.064837 -1.064837
128.950000 -1.064837 -1.064837
129.000000 -1.064837 -1.064837
129.050000 -1.064837 -1.064837
129.100000 -1.064837 -1.064837
129.150000 -1.064837 -1.064837
129.200000 -1.064837 -1.064837
129.250000 -1.064837 -1.064837
129.300000 -1.064837 -1.064837
129.350000 -1.064837 -1.064837
129.400000 -1.064837 -1.064837
129.450000 -1.064837 -1.064837
129.500000 -1.064837 -1.064837
129.550000 -1.064837 -1.064837
129.600000 -1.064837 -1.064837
129.650000 -1.064837 -1.064837
129.700000 -1.064837 -1.064837
129.750000 -1.064837 -1.064837
129.800000 -1.064837 -1.064837
129.850000 -1.064837 -1.064837
129.900000 -1.064837 -1.064837
129.950000 -1.064837 -1.064837
130.000000 -1.064837 -1.064837
130.050000 -1.064837 -1.064837
130.100000 -1.064837 -1.064837
130.150000 -1.064837 -1.064837
130.200000 -1.064837 -1.064837
130.250000 -1.064837 -1.064837
130.300000 -1.064837 -1.064837
130.350000 -1.064837 -1.064837
130.400000 -1.064837 -1.064837
130.450000 -1.064837 -1.064837
130.500000 -1.064837 -1.064837
130.550000 -1.064837 -1.064837
130.600000 -1.064837 -1.064837
130.650000 -1.064837 -1.064837
130.700000 -1.064837 -1.064837
130.750000 -1.064837 -1.064837
130.800000 -1.064837 -1.064837
130.850000 -1.064837 -1.064837
130.900000 -1.064837 -1.064837
130.950000 -1.064837 -1.064837
131.000000 -1.064837 -1.064837
131.050000 -1.064837 -1.064837
131.100000 -1.064837 -1.064837
131.150000 -1.064837 -1.064837
131.200000 -1.064837 -1.064837
131.250000 -1.064837 -1.064837
131.300000 -1.064837 -1.064837
131.350000 -1.064837 -1.064837
131.400000 -1.064837 -1.064837
131.450000 -1.064837 -1.064837
131.500000 -1.064837 -1.064837
131.550000 -1.064837 -1.064837
131.600000 -1.064837 -1.064837
131.650000 -1.064837 -1.064837
131.700000 -1.064837 -1.064837
131.750000 -1.064837 -1.064837
131.800000 -1.064837 -1.064837
131.850000 -1.064837 -1.064837
131.900000 -1.064837 -1.064837
131.950000 -1.064837 -1.064837
132.000000 -1.064837 -1.064837
132.050000 -1.064837 -1.064837
132.100000 -1.064837 -1.064837
132.150000 -1.064837 -1.064837
132.200000 -1.064837 -1.064837
132.250000 -1.064837 -1.064837
132.300000 -1.064837 -1.064837
132.350000 -1.064837 -1.064837
132.400000 -1.064837 -1.064837
132.450000 -1.064837 -1.064837
132.500000 -1.064837 -1.064837
132.550000 -1.064837 -1.064837
132.600000 -1.064837 -1.064837
132.650000 -1.064837 -1.064837
132.700000 -1.064837 -1.064837
132.750000 -1.064837 -1.064837
132.800000 -1.064837 -1.064837
132.850000 -1.064837 -1.064837
132.900000 -1.064837 -1.064837
132.950000 -1.064837 -1.064837
133.000000 -1.064837 -1.064837
133.050000 -1.064837 -1.064837
133.100000 -1.064837 -1.064837
133.150000 -1.064837 -1.064837
133.200000 -1.064837 -1.064837
133.250000 -1.064837 -1.064837
133.300000 -1.064837 -1.064837
133.350000 -1.064837 -1.064837
133.400000 -1.064837 -1.064837
133.450000 -1.064837 -1.064837
133.500000 -1.064837 -1.064837
133.550000 -1.064837 -1.064837
133.600000 -1.064837 -1.064837
133.650000 -1.064837 -1.064837
133.700000 -1.064837 -1.064837
133.750000 -1.064837 -1.064837
133.800000 -1.064837 -1.064837
133.850000 -1.064837 -1.064837
133.900000 -1.064837 -1.064837
133.950000 -1.064837 -1.064837
134.000000 -1.064837 -1.064837
134.050000 -1.064837 -1.064837
134.100000 -1.064837 -1.064837
134.150000 -1.064837 -1.064837
134.200000 -1.064837 -1.064837
134.250000 -1.064837 -1.064837
134.300000 -1.064837 -1.064837
134.350000 -1.064837 -1.064837
134.400000 -1.064837 -1.064837
134.450000 -1.064837 -1.064837
134.500000 -1.064837 -1.064837
134.550000 -1.064837 -1.064837
134.600000 -1.064837 -1.064837
134.650000 -1.064837 -1.064837
134.700000 -1.064837 -1.064837
134.750000 -1.064837 -1.064837
134.800000 -1.064837 -1.064837
134.850000 -1.064837 -1.064837
134.900000 -1.064837 -1.064837
134.950000 -1.064837 -1.064837
135.000000 -1.064837 -1.064837
135.050000 -1.064837 -1.064837
135.100000 -1.064837 -1.064837
135.150000 -1.064837 -1.064837
135.200000 -1.064837 -1.064837
135.250000 -1.064837 -1.064837
135.300000 -1.064837 -1.064837
135.350000 -1.064837 -1.064837
135.400000 -1.064837 -1.064837
135.450000 -1.064837 -1.064837
135.500000 -1.064837 -1.064837
135.550000 -1.064837 -1.064837
135.600000 -1.064837 -1.064837
135.650000 -1.064837 -1.064837
135.700000 -1.064837 -1.064837
135.750000 -1.064837 -1.064837
135.800000 -1.064837 -1.064837
135.850000 -1.064837 -1.064837
135.900000 -1.064837 -1.064837
135.950000 -1.064837 -1.064837
136.000000 -1.064837 -1.064837
136.050000 -1.064837 -1.064837
136.100000 -1.064837 -1.064837
136.150000 -1.064837 -1.064837
136.200000 -1.064837 -1.064837
136.250000 -1.064837 -1.064837
136.300000 -1.064837 -1.064837
136.350000 -1.064837 -1.064837
136.400000 -1.064837 -1.064837
136.450000 -1.064837 -1.064837
136.500000 -1.064837 -1.064837
136.550000 -1.064837 -1.064837
136.600000 -1.064837 -1.064837
136.650000 -1.064837 -1.064837
136.700000 -1.064837 -1.064837
136.750000 -1.064837 -1.064837
136.800000 -1.064837 -1.064837
136.850000 -1.064837 -1.064837
136.900000 -1.064837 -1.064837
136.950000 -1.064837 -1.064837
137.000000 -1.064837 -1.064837
137.050000 -1.064837 -1.064837
137.100000 -1.064837 -1.064837
137.150000 -1.064837 -1.064837
137.200000 -1.064837 -1.064837
137.250000 -1.064837 -1.064837
137.300000 -1.064837 -1.064837
137.350000 -1.064837 -1.064837
137.400000 -1.064837 -1.064837
137.450000 -1.064837 -1.064837
137.500000 -1.064837 -1.064837
137.550000 -1.064837 -1.064837
137.600000 -1.064837 -1.064837
137.650000 -1.064837 -1.064837
137.700000 -1.064837 -1.064837
137.750000 -1.064837 -1.064837
137.800000 -1.064837 -1.064837
137.850000 -1.064837 -1.064837
137.900000 -1.064837 -1.064837
137.950000 -1.064837 -1.064837
138.000000 -1.064837 -1.064837
138.050000 -1.064837 -1.064837
138.100000 -1.064837 -1.064837
138.150000 -1.064837 -1.064837
138.200000 -1.064837 -1.064837
138.250000 -1.064837 -1.064837
138.300000 -1.064837 -1.064837
138.350000 -1.064837 -1.064837
138.400000 -1.064837 -1.064837
138.450000 -1.064837 -1.064837
138.500000 -1.064837 -1.064837
138.550000 -1.064837 -1.064837
138.600000 -1.064837 -1.064837
138.650000 -1.064837 -1.064837
138.700000 -1.064837 -1.064837
138.750000 -1.064837 -1.064837
138.800000 -1.064837 -1.064837
138.850000 -1.064837 -1.064837
138.900000 -1.064837 -1.064837
138.950000 -1.064837 -1.064837
139.000000 -1.064837 -1.064837
139.050000 -1.064837 -1.064837
139.100000 -1.064837 -1.064837
139.150000 -1.064837 -1.064837
139.200000 -1.064837 -1.064837
139.250000 -1.064837 -1.064837
139.300000 -1.064837 -1.064837
139.350000 -1.064837 -1.064837
139.400000 -1.064837 -1.064837
139.450000 -1.064837 -1.064837
139.500000 -1.064837 -1.064837
139.550000 -1.064837 -1.064837
139.600000 -1.064837 -1.064837
139.650000 -1.064837 -1.064837
139.700000 -1.064837 -1.064837
139.750000 -1.064837 -1.064837
139.800000 -1.064837 -1.064837
139.850000 -1.064837 -1.064837
139.900000 -1.064837 -1.064837
139.950000 -1.064837 -1.064837
140.000000 -1.064837 -1.064837
140.050000 -1.064837 -1.064837
140.100000 -1.064837 -1.064837
140.150000 -1.064837 -1.064837
140.200000 -1.064837 -1.064837
140.250000 -1.064837 -1.064837
140.300000 -1.064837 -1.064837
140.350000 -1.064837 -1.064837
140.400000 -1.064837 -1.064837
140.450000 -1.064837 -1.064837
140.500000 -1.064837 -1.064837
140.550000 -1.064837 -1.064837
140.600000 -1.064837 -1.064837
140.650000 -1.064837 -1.064837
140.700000 -1.064837 -1.064837
140.750000 -1.064837 -1.064837
140.800000 -1.064837 -1.064837
140.850000 -1.064837 -1.064837
140.900000 -1.064837 -1.064837
140.950000 -1.064837 -1.064837
141.000000 -1.064837 -1.064837
141.050000 -1.064837 -1.064837
141.100000 -1.064837 -1.064837
141.150000 -1.064837 -1.064837
141.200000 -1.064837 -1.064837
141.250000 -1.064837 -1.064837
141.300000 -1.064837 -1.064837
141.350000 -1.064837 -1.064837
141.400000 -1.064837 -1.064837
141.450000 -1.064837 -1.064837
141.500000 -1.064837 -1.064837
141.550000 -1.064837 -1.064837
141.600000 -1.064837 -1.064837
141.650000 -1.064837 -1.064837
141.700000 -1.064837 -1.064837
141.750000 -1.064837 -1.064837
141.800000 -1.064837 -1.064837
141.850000 -1.064837 -1.064837
141.900000 -1.064837 -1.064837
141.950000 -1.064837 -1.064837
142.000000 -1.064837 -1.064837
142.050000 -1.064837 -1.064837
142.100000 -1.064837 -1.064837
142.150000 -1.064837 -1.064837
142.200000 -1.064837 -1.064837
142.250000 -1.064837 -1.064837
142.300000 -1.064837 -1.064837
142.350000 -1.064837 -1.064837
142.400000 -1.064837 -1.064837
142.450000 -1.064837 -1.064837
142.500000 -1.064837 -1.064837
142.550000 -1.064837 -1.064837
142.600000 -1.064837 -1.064837
142.650000 -1.064837 -1.064837
142.700000 -1.064837 -1.064837
142.750000 -1.064837 -1.064837
142.800000 -1.064837 -1.064837
142.850000 -1.064837 -1.064837
142.900000 -1.064837 -1.064837
142.950000 -1.064837 -1.064837
143.000000 -1.064837 -1.064837
143.050000 -1.064837 -1.064837
143.100000 -1.064837 -1.064837
143.150000 -1.064837 -1.064837
143.200000 -1.064837 -1.064837
143.250000 -1.064837 -1.064837
143.300000 -1.064837 -1.064837
143.350000 -1.064837 -1.064837
143.400000 -1.064837 -1.064837
143.450000 -1.064837 -1.064837
143.500000 -1.064837 -1.064837
143.550000 -1.064837 -1.064837
143.600000 -1.064837 -1.064837
143.650000 -1.064837 -1.064837
143.700000 -1.064837 -1.064837
143.750000 -1.064837 -1.064837
143.800000 -1.064837 -1.064837
143.850000 -1.064837 -1.064837
143.900000 -1.064837 -1.064837
143.950000 -1.064837 -1.064837
144.000000 -1.064837 -1.064837
144.050000 -1.064837 -1.064837
144.100000 -1.064837 -1.064837
144.150000 -1.064837 -1.064837
144.200000 -1.064837 -1.064837
144.250000 -1.064837 -1.064837
144.300000 -1.064837 -1.064837
144.350000 -1.064837 -1.064837
144.400000 -1.064837 -1.064837
144.450000 -1.064837 -1.064837
144.500000 -1.064837 -1.064837
144.550000 -1.064837 -1.064837
144.600000 -1.064837 -1.064837
144.650000 -1.064837 -1.064837
144.700000 -1.064837 -1.064837
144.750000 -1.064837 -1.064837
144.800000 -1.064837 -1.064837
144.850000 -1.064837 -1.064837
144.900000 -1.064837 -1.064837
144.950000 -1.064837 -1.064837
145.000000 -1.064837 -1.064837
145.050000 -1.064837 -1.064837
145.100000 -1.064837 -1.064837
145.150000 -1.064837 -1.064837
145.200000 -1.064837 -1.064837
145.250000 -1.064837 -1.064837
145.300000 -1.064837 -1.064837
145.350000 -1.064837 -1.064837
145.400000 -1.064837 -1.064837
145.450000 -1.064837 -1.064837
145.500000 -1.064837 -1.064837
145.550000 -1.064837 -1.064837
145.600000 -1.064837 -1.064837
145.650000 -1.064837 -1.064837
145.700000 -1.064837 -1.064837
145.750000 -1.064837 -1.064837
145.800000 -1.064837 -1.064837
145.850000 -1.064837 -1.064837
145.900000 -1.064837 -1.064837
145.950000 -1.064837 -1.064837
146.000000 -1.064837 -1.064837
146.050000 -1.064837 -1.064837
146.100000 -1.064837 -1.064837
146.150000 -1.064837 -1.064837
146.200000 -1.064837 -1.064837
146.250000 -1.064837 -1.064837
146.300000 -1.064837 -1.064837
146.350000 -1.064837 -1.064837
146.400000 -1.064837 -1.064837
146.450000 -1.064837 -1.064837
146.500000 -1.064837 -1.064837
146.550000 -1.064837 -1.064837
146.600000 -1.064837 -1.064837
146.650000 -1.064837 -1.064837
146.700000 -1.064837 -1.064837
146.750000 -1.064837 -1.064837
146.800000 -1.064837 -1.064837
146.850000 -1.064837 -1.064837
146.900000 -1.064837 -1.064837
146.950000 -1.064837 -1.064837
147.000000 -1.064837 -1.064837
147.050000 -1.064837 -1.064837
147.100000 -1.064837 -1.064837
147.150000 -1.064837 -1.064837
147.200000 -1.064837 -1.064837
147.250000 -1.064837 -1.064837
147.300000 -1.064837 -1.064837
147.350000 -1.064837 -1.064837
147.400000 -1.064837 -1.064837
147.450000 -1.064837 -1.064837
147.500000 -1.064837 -1.064837
147.550000 -1.064837 -1.064837
147.600000 -1.064837 -1.064837
147.650000 -1.064837 -1.064837
147.700000 -1.064837 -1.064837
147.750000 -1.064837 -1.064837
147.800000 -1.064837 -1.064837
147.850000 -1.064837 -1.064837
147.900000 -1.064837 -1.064837
147.950000 -1.064837 -1.064837
148.000000 -1.064837 -1.064837
148.050000 -1.064837 -1.064837
148.100000 -1.064837 -1.064837
148.150000 -1.064837 -1.064837
148.200000 -1.064837 -1.064837
148.250000 -1.064837 -1.064837
148.300000 -1.064837 -1.064837
148.350000 -1.064837 -1.064837
148.400000 -1.064837 -1.064837
148.450000 -1.064837 -1.064837
148.500000 -1.064837 -1.064837
148.550000 -1.064837 -1.064837
148.600000 -1.064837 -1.064837
148.650000 -1.064837 -1.064837
148.700000 -1.064837 -1.064837
148.750000 -1.064837 -1.064837
148.800000 -1.064837 -1.064837
148.850000 -1.064837 -1.064837
148.900000 -1.064837 -1.064837
148.950000 -1.064837 -1.064837
149.000000 -1.064837 -1.064837
149.050000 -1.064837 -1.064837
149.100000 -1.064837 -1.064837
149.150000 -1.064837 -1.064837
149.200000 -1.064837 -1.064837
149.250000 -1.064837 -1.064837
149.300000 -1.064837 -1.064837
149.350000 -1.064837 -1.064837
149.400000 -1.064837 -1.064837
149.450000 -1.064837 -1.064837
149.500000 -1.064837 -1.064837
149.550000 -1.064837 -1.064837
149.600000 -1.064837 -1.064837
149.650000 -1.064837 -1.064837
149.700000 -1.064837 -1.064837
149.750000 -1.064837 -1.064837
149.800000 -1.064837 -1.064837
149.850000 -1.064837 -1.064837
149.900000 -1.064837 -1.064837
149.950000 -1.064837 -1.064837
150.000000 -1.064837 -1.064837
150.050000 -1.064837 -1.064837
150.100000 -1.064837 -1.064837
150.150000 -1.064837 -1.064837
150.200000 -1.064837 -1.064837
150.250000 -1.064837 -1.064837
150.300000 -1.064837 -1.064837
150.350000 -1.064837 -1.064837
150.400000 -1.064837 -1.064837
150.450000 -1.064837 -1.064837
150.500000 -1.064837 -1.064837
150.550000 -1.064837 -1.064837
150.600000 -1.064837 -1.064837
150.650000 -1.064837 -1.064837
150.700000 -1.064837 -1.064837
150.750000 -1.064837 -1.064837
150.800000 -1.064837 -1.064837
150.850000 -1.064837 -1.064837
150.900000 -1.064837 -1.064837
150.950000 -1.064837 -1.064837
151.000000 -1.064837 -1.064837
151.050000 -1.064837 -1.064837
151.100000 -1.064837 -1.064837
151.150000 -1.064837 -1.064837
151.200000 -1.064837 -1.064837
151.250000 -1.064837 -1.064837
151.300000 -1.064837 -1.064837
151.350000 -1.064837 -1.064837
151.400000 -1.064837 -1.064837
151.450000 -1.064837 -1.064837
151.500000 -1.064837 -1.064837
151.550000 -1.064837 -1.064837
151.600000 -1.064837 -1.064837
151.650000 -1.064837 -1.064837
151.700000 -1.064837 -1.064837
151.750000 -1.064837 -1.064837
151.800000 -1.064837 -1.064837
151.850000 -1.064837 -1.064837
151.900000 -1.064837 -1.064837
151.950000 -1.064837 -1.064837
152.000000 -1.064837 -1.064837
152.050000 -1.064837 -1.064837
152.100000 -1.064837 -1.064837
152.150000 -1.064837 -1.064837
152.200000 -1.064837 -1.064837
152.250000 -1.064837 -1.064837
152.300000 -1.064837 -1.064837
152.350000 -1.064837 -1.064837
152.400000 -1.064837 -1.064837
152.450000 -1.064837 -1.064837
152.500000 -1.064837 -1.064837
152.550000 -1.064837 -1.064837
152.600000 -1.064837 -1.064837
152.650000 -1.064837 -1.064837
152.700000 -1.064837 -1.064837
152.750000 -1.064837 -1.064837
152.800000 -1.064837 -1.064837
152.850000 -1.064837 -1.064837
152.900000 -1.064837 -1.064837
152.950000 -1.064837 -1.064837
153.000000 -1.064837 -1.064837
153.050000 -1.064837 -1.064837
153.100000 -1.064837 -1.064837
153.150000 -1.064837 -1.064837
153.200000 -1.064837 -1.064837
153.250000 -1.064837 -1.064837
153.300000 -1.064837 -1.064837
153.350000 -1.064837 -1.064837
153.400000 -1.064837 -1.064837
153.450000 -1.064837 -1.064837
153.500000 -1.064837 -1.064837
153.550000 -1.064837 -1.064837
153.600000 -1.064837 -1.064837
153.650000 -1.064837 -1.064837
153.700000 -1.064837 -1.064837
153.750000 -1.064837 -1.064837
153.800000 -1.064837 -1.064837
153.850000 -1.064837 -1.064837
153.900000 -1.064837 -1.064837
153.950000 -1.064837 -1.064837
154.000000 -1.064837 -1.064837
154.050000 -1.064837 -1.064837
154.100000 -1.064837 -1.064837
154.150000 -1.064837 -1.064837
154.200000 -1.064837 -1.064837
154.250000 -1.064837 -1.064837
154.300000 -1.064837 -1.064837
154.350000 -1.064837 -1.064837
154.400000 -1.064837 -1.064837
154.450000 -1.064837 -1.064837
154.500000 -1.064837 -1.064837
154.550000 -1.064837 -1.064837
154.600000 -1.064837 -1.064837
154.650000 -1.064837 -1.064837
154.700000 -1.064837 -1.064837
154.750000 -1.064837 -1.064837
154.800000 -1.064837 -1.064837
154.850000 -1.064837 -1.064837
154.900000 -1.064837 -1.064837
154.950000 -1.064837 -1.064837
155.000000 -1.064837 -1.064837
155.050000 -1.064837 -1.064837
155.100000 -1.064837 -1.064837
155.150000 -1.064837 -1.064837
155.200000 -1.064837 -1.064837
155.250000 -1.064837 -1.064837
155.300000 -1.064837 -1.064837
155.350000 -1.064837 -1.064837
155.400000 -1.064837 -1.064837
155.450000 -1.064837 -1.064837
155.500000 -1.064837 -1.064837
155.550000 -1.064837 -1.064837
155.600000 -1.064837 -1.064837
155.650000 -1.064837 -1.064837
155.700000 -1.064837 -1.064837
155.750000 -1.064837 -1.064837
155.800000 -1.064837 -1.064837
155.850000 -1.064837 -1.064837
155.900000 -1.064837 -1.064837
155.950000 -1.064837 -1.064837
156.000000 -1.064837 -1.064837
156.050000 -1.064837 -1.064837
156.100000 -1.064837 -1.064837
156.150000 -1.064837 -1.064837
156.200000 -1.064837 -1.064837
156.250000 -1.064837 -1.064837
156.300000 -1.064837 -1.064837
156.350000 -1.064837 -1.064837
156.400000 -1.064837 -1.064837
156.450000 -1.064837 -1.064837
156.500000 -1.064837 -1.064837
156.550000 -1.064837 -1.064837
156.600000 -1.064837 -1.064837
156.650000 -1.064837 -1.064837
156.700000 -1.064837 -1.064837
156.750000 -1.064837 -1.064837
156.800000 -1.064837 -1.064837
156.850000 -1.064837 -1.064837
156.900000 -1.064837 -1.064837
156.950000 -1.064837 -1.064837
157.000000 -1.064837 -1.064837
157.050000 -1.064837 -1.064837
157.100000 -1.064837 -1.064837
157.150000 -1.064837 -1.064837
157.200000 -1.064837 -1.064837
157.250000 -1.064837 -1.064837
157.300000 -1.064837 -1.064837
157.350000 -1.064837 -1.064837
157.400000 -1.064837 -1.064837
157.450000 -1.064837 -1.064837
157.500000 -1.064837 -1.064837
157.550000 -1.064837 -1.064837
157.600000 -1.064837 -1.064837
157.650000 -1.064837 -1.064837
157.700000 -1.064837 -1.064837
157.750000 -1.064837 -1.064837
157.800000 -1.064837 -1.064837
157.850000 -1.064837 -1.064837
157.900000 -1.064837 -1.064837
157.950000 -1.064837 -1.064837
158.000000 -1.064837 -1.064837
158.050000 -1.064837 -1.064837
158.100000 -1.064837 -1.064837
158.150000 -1.064837 -1.064837
158.200000 -1.064837 -1.064837
158.250000 -1.064837 -1.064837
158.300000 -1.064837 -1.064837
158.350000 -1.064837 -1.064837
158.400000 -1.064837 -1.064837
158.450000 -1.064837 -1.064837
158.500000 -1.064837 -1.064837
158.550000 -1.064837 -1.064837
158.600000 -1.064837 -1.064837
158.650000 -1.064837 -1.064837
158.700000 -1.064837 -1.064837
158.750000 -1.064837 -1.064837
158.800000 -1.064837 -1.064837
158.850000 -1.064837 -1.064837
158.900000 -1.064837 -1.064837
158.950000 -1.064837 -1.064837
159.000000 -1.064837 -1.064837
159.050000 -1.064837 -1.064837
159.100000 -1.064837 -1.064837
159.150000 -1.064837 -1.064837
159.200000 -1.064837 -1.064837
159.250000 -1.064837 -1.064837
159.300000 -1.064837 -1.064837
159.350000 -1.064837 -1.064837
159.400000 -1.064837 -1.064837
159.450000 -1.064837 -1.064837
159.500000 -1.064837 -1.064837
159.550000 -1.064837 -1.064837
159.600000 -1.064837 -1.064837
159.650000 -1.064837 -1.064837
159.700000 -1.064837 -1.064837
159.750000 -1.064837 -1.064837
159.800000 -1.064837 -1.064837
159.850000 -1.064837 -1.064837
159.900000 -1.064837 -1.064837
159.950000 -1.064837 -1.064837
160.000000 -1.064837 -1.064837
160.050000 -1.064837 -1.064837
160.100000 -1.064837 -1.064837
160.150000 -1.064837 -1.064837
160.200000 -1.064837 -1.064837
160.250000 -1.064837 -1.064837
160.300000 -1.064837 -1.064837
160.350000 -1.064837 -1.064837
160.400000 -1.064837 -1.064837
160.450000 -1.064837 -1.064837
160.500000 -1.064837 -1.064837
160.550000 -1.064837 -1.064837
160.600000 -1.064837 -1.064837
160.650000 -1.064837 -1.064837
160.700000 -1.064837 -1.064837
160.750000 -1.064837 -1.064837
160.800000 -1.064837 -1.064837
160.850000 -1.064837 -1.064837
160.900000 -1.064837 -1.064837
160.950000 -1.064837 -1.064837
161.000000 -1.064837 -1.064837
161.050000 -1.064837 -1.064837
161.100000 -1.064837 -1.064837
161.150000 -1.064837 -1.064837
161.200000 -1.064837 -1.064837
161.250000 -1.064837 -1.064837
161.300000 -1.064837 -1.064837
161.350000 -1.064837 -1.064837
161.400000 -1.064837 -1.064837
161.450000 -1.064837 -1.064837
161.500000 -1.064837 -1.064837
161.550000 -1.064837 -1.064837
161.600000 -1.064837 -1.064837
161.650000 -1.064837 -1.064837
161.700000 -1.064837 -1.064837
161.750000 -1.064837 -1.064837
161.800000 -1.064837 -1.064837
161.850000 -1.064837 -1.064837
161.900000 -1.064837 -1.064837
161.950000 -1.064837 -1.064837
162.000000 -1.064837 -1.064837
162.050000 -1.064837 -1.064837
162.100000 -1.064837 -1.064837
162.150000 -1.064837 -1.064837
162.200000 -1.064837 -1.064837
162.250000 -1.064837 -1.064837
162.300000 -1.064837 -1.064837
162.350000 -1.064837 -1.064837
162.400000 -1.064837 -1.064837
162.450000 -1.064837 -1.064837
162.500000 -1.064837 -1.064837
162.550000 -1.064837 -1.064837
162.600000 -1.064837 -1.064837
162.650000 -1.064837 -1.064837
162.700000 -1.064837 -1.064837
162.750000 -1.064837 -1.064837
162.800000 -1.064837 -1.064837
162.850000 -1.064837 -1.064837
162.900000 -1.064837 -1.064837
162.950000 -1.064837 -1.064837
163.000000 -1.064837 -1.064837
163.050000 -1.064837 -1.064837
163.100000 -1.064837 -1.064837
163.150000 -1.064837 -1.064837
163.200000 -1.064837 -1.064837
163.250000 -1.064837 -1.064837
163.300000 -1.064837 -1.064837
163.350000 -1.064837 -1.064837
163.400000 -1.064837 -1.064837
163.450000 -1.064837 -1.064837
163.500000 -1.064837 -1.064837
163.550000 -1.064837 -1.064837
163.600000 -1.064837 -1.064837
163.650000 -1.064837 -1.064837
163.700000 -1.064837 -1.064837
163.750000 -1.064837 -1.064837
163.800000 -1.064837 -1.064837
163.850000 -1.064837 -1.064837
163.900000 -1.064837 -1.064837
163.950000 -1.064837 -1.064837
164.000000 -1.064837 -1.064837
164.050000 -1.064837 -1.064837
164.100000 -1.064837 -1.064837
164.150000 -1.064837 -1.064837
164.200000 -1.064837 -1.064837
164.250000 -1.064837 -1.064837
164.300000 -1.064837 -1.064837
164.350000 -1.064837 -1.064837
164.400000 -1.064837 -1.064837
164.450000 -1.064837 -1.064837
164.500000 -1.064837 -1.064837
164.550000 -1.064837 -1.064837
164.600000 -1.064837 -1.064837
164.650000 -1.064837 -1.064837
164.700000 -1.064837 -1.064837
164.750000 -1.064837 -1.064837
164.800000 -1.064837 -1.064837
164.850000 -1.064837 -1.064837
164.900000 -1.064837 -1.064837
164.950000 -1.064837 -1.064837
165.000000 -1.064837 -1.064837
165.050000 -1.064837 -1.064837
165.100000 -1.064837 -1.064837
165.150000 -1.064837 -1.064837
165.200000 -1.064837 -1.064837
165.250000 -1.064837 -1.064837
165.300000 -1.064837 -1.064837
165.350000 -1.064837 -1.064837
165.400000 -1.064837 -1.064837
165.450000 -1.064837 -1.064837
165.500000 -1.064837 -1.064837
165.550000 -1.064837 -1.064837
165.600000 -1.064837 -1.064837
165.650000 -1.064837 -1.064837
165.700000 -1.064837 -1.064837
165.750000 -1.064837 -1.064837
165.800000 -1.064837 -1.064837
165.850000 -1.064837 -1.064837
165.900000 -1.064837 -1.064837
165.950000 -1.064837 -1.064837
166.000000 -1.064837 -1.064837
166.050000 -1.064837 -1.064837
166.100000 -1.064837 -1.064837
166.150000 -1.064837 -1.064837
166.200000 -1.064837 -1.064837
166.250000 -1.064837 -1.064837
166.300000 -1.064837 -1.064837
166.350000 -1.064837 -1.064837
166.400000 -1.064837 -1.064837
166.450000 -1.064837 -1.064837
166.500000 -1.064837 -1.064837
166.550000 -1.064837 -1.064837
166.600000 -1.064837 -1.064837
166.650000 -1.064837 -1.064837
166.700000 -1.064837 -1.064837
166.750000 -1.064837 -1.064837
166.800000 -1.064837 -1.064837
166.850000 -1.064837 -1.064837
166.900000 -1.064837 -1.064837
166.950000 -1.064837 -1.064837
167.000000 -1.064837 -1.064837
167.050000 -1.064837 -1.064837
167.100000 -1.064837 -1.064837
167.150000 -1.064837 -1.064837
167.200000 -1.064837 -1.064837
167.250000 -1.064837 -1.064837
167.300000 -1.064837 -1.064837
167.350000 -1.064837 -1.064837
167.400000 -1.064837 -1.064837
167.450000 -1.064837 -1.064837
167.500000 -1.064837 -1.064837
167.550000 -1.064837 -1.064837
167.600000 -1.064837 -1.064837
167.650000 -1.064837 -1.064837
167.700000 -1.064837 -1.064837
167.750000 -1.064837 -1.064837
167.800000 -1.064837 -1.064837
167.850000 -1.064837 -1.064837
167.900000 -1.064837 -1.064837
167.950000 -1.064837 -1.064837
168.000000 -1.064837 -1.064837
168.050000 -1.064837 -1.064837
168.100000 -1.064837 -1.064837
168.150000 -1.064837 -1.064837
168.200000 -1.064837 -1.064837
168.250000 -1.064837 -1.064837
168.300000 -1.064837 -1.064837
168.350000 -1.064837 -1.064837
168.400000 -1.064837 -1.064837
168.450000 -1.064837 -1.064837
168.500000 -1.064837 -1.064837
168.550000 -1.064837 -1.064837
168.600000 -1.064837 -1.064837
168.650000 -1.064837 -1.064837
168.700000 -1.064837 -1.064837
168.750000 -1.064837 -1.064837
168.800000 -1.064837 -1.064837
168.850000 -1.064837 -1.064837
168.900000 -1.064837 -1.064837
168.950000 -1.064837 -1.064837
169.000000 -1.064837 -1.064837
169.050000 -1.064837 -1.064837
169.100000 -1.064837 -1.064837
169.150000 -1.064837 -1.064837
169.200000 -1.064837 -1.064837
169.250000 -1.064837 -1.064837
169.300000 -1.064837 -1.064837
169.350000 -1.064837 -1.064837
169.400000 -1.064837 -1.064837
169.450000 -1.064837 -1.064837
169.500000 -1.064837 -1.064837
169.550000 -1.064837 -1.064837
169.600000 -1.064837 -1.064837
169.650000 -1.064837 -1.064837
169.700000 -1.064837 -1.064837
169.750000 -1.064837 -1.064837
169.800000 -1.064837 -1.064837
169.850000 -1.064837 -1.064837
169.900000 -1.064837 -1.064837
169.950000 -1.064837 -1.064837
170.000000 -1.064837 -1.064837
170.050000 -1.064837 -1.064837
170.100000 -1.064837 -1.064837
170.150000 -1.064837 -1.064837
170.200000 -1.064837 -1.064837
170.250000 -1.064837 -1.064837
170.300000 -1.064837 -1.064837
170.350000 -1.064837 -1.064837
170.400000 -1.064837 -1.064837
170.450000 -1.064837 -1.064837
170.500000 -1.064837 -1.064837
170.550000 -1.064837 -1.064837
170.600000 -1.064837 -1.064837
170.650000 -1.064837 -1.064837
170.700000 -1.064837 -1.064837
170.750000 -1.064837 -1.064837
170.800000 -1.064837 -1.064837
170.850000 -1.064837 -1.064837
170.900000 -1.064837 -1.064837
170.950000 -1.064837 -1.064837
171.000000 -1.064837 -1.064837
171.050000 -1.064837 -1.064837
171.100000 -1.064837 -1.064837
171.150000 -1.064837 -1.064837
171.200000 -1.064837 -1.064837
171.250000 -1.064837 -1.064837
171.300000 -1.064837 -1.064837
171.350000 -1.064837 -1.064837
171.400000 -1.064837 -1.064837
171.450000 -1.064837 -1.064837
171.500000 -1.064837 -1.064837
171.550000 -1.064837 -1.064837
171.600000 -1.064837 -1.064837
171.650000 -1.064837 -1.064837
171.700000 -1.064837 -1.064837
171.750000 -1.064837 -1.064837
171.800000 -1.064837 -1.064837
171.850000 -1.064837 -1.064837
171.900000 -1.064837 -1.064837
171.950000 -1.064837 -1.064837
172.000000 -1.064837 -1.064837
172.050000 -1.064837 -1.064837
172.100000 -1.064837 -1.064837
172.150000 -1.064837 -1.064837
172.200000 -1.064837 -1.064837
172.250000 -1.064837 -1.064837
172.300000 -1.064837 -1.064837
172.350000 -1.064837 -1.064837
172.400000 -1.064837 -1.064837
172.450000 -1.064837 -1.064837
172.500000 -1.064837 -1.064837
172.550000 -1.064837 -1.064837
172.600000 -1.064837 -1.064837
172.650000 -1.064837 -1.064837
172.700000 -1.064837 -1.064837
172.750000 -1.064837 -1.064837
172.800000 -1.064837 -1.064837
172.850000 -1.064837 -1.064837
172.900000 -1.064837 -1.064837
172.950000 -1.064837 -1.064837
173.000000 -1.064837 -1.064837
173.050000 -1.064837 -1.064837
173.100000 -1.064837 -1.064837
173.150000 -1.064837 -1.064837
173.200000 -1.064837 -1.064837
173.250000 -1.064837 -1.064837
173.300000 -1.064837 -1.064837
173.350000 -1.064837 -1.064837
173.400000 -1.064837 -1.064837
173.450000 -1.064837 -1.064837
173.500000 -1.064837 -1.064837
173.550000 -1.064837 -1.064837
173.600000 -1.064837 -1.064837
173.650000 -1.064837 -1.064837
173.700000 -1.064837 -1.064837
173.750000 -1.064837 -1.064837
173.800000 -1.064837 -1.064837
173.850000 -1.064837 -1.064837
173.900000 -1.064837 -1.064837
173.950000 -1.064837 -1.064837
174.000000 -1.064837 -1.064837
174.050000 -1.064837 -1.064837
174.100000 -1.064837 -1.064837
174.150000 -1.064837 -1.064837
174.200000 -1.064837 -1.064837
174.250000 -1.064837 -1.064837
174.300000 -1.064837 -1.064837
174.350000 -1.064837 -1.064837
174.400000 -1.064837 -1.064837
174.450000 -1.064837 -1.064837
174.500000 -1.064837 -1.064837
174.550000 -1.064837 -1.064837
174.600000 -1.064837 -1.064837
174.650000 -1.064837 -1.064837
174.700000 -1.064837 -1.064837
174.750000 -1.064837 -1.064837
174.800000 -1.064837 -1.064837
174.850000 -1.064837 -1.064837
174.900000 -1.064837 -1.064837
174.950000 -1.064837 -1.064837
175.000000 -1.064837 -1.064837
175.050000 -1.064837 -1.064837
175.100000 -1.064837 -1.064837
175.150000 -1.064837 -1.064837
175.200000 -1.064837 -1.064837
175.250000 -1.064837 -1.064837
175.300000 -1.064837 -1.064837
175.350000 -1.064837 -1.064837
175.400000 -1.064837 -1.064837
175.450000 -1.064837 -1.064837
175.500000 -1.064837 -1.064837
175.550000 -1.064837 -1.064837
175.600000 -1.064837 -1.064837
175.650000 -1.064837 -1.064837
175.700000 -1.064837 -1.064837
175.750000 -1.064837 -1.064837
175.800000 -1.064837 -1.064837
175.850000 -1.064837 -1.064837
175.900000 -1.064837 -1.064837
175.950000 -1.064837 -1.064837
176.000000 -1.064837 -1.064837
176.050000 -1.064837 -1.064837
176.100000 -1.064837 -1.064837
176.150000 -1.064837 -1.064837
176.200000 -1.064837 -1.064837
176.250000 -1.064837 -1.064837
176.300000 -1.064837 -1.064837
176.350000 -1.064837 -1.064837
176.400000 -1.064837 -1.064837
176.450000 -1.064837 -1.064837
176.500000 -1.064837 -1.064837
176.550000 -1.064837 -1.064837
176.600000 -1.064837 -1.064837
176.650000 -1.064837 -1.064837
176.700000 -1.064837 -1.064837
176.750000 -1.064837 -1.064837
176.800000 -1.064837 -1.064837
176.850000 -1.064837 -1.064837
176.900000 -1.064837 -1.064837
176.950000 -1.064837 -1.064837
177.000000 -1.064837 -1.064837
177.050000 -1.064837 -1.064837
177.100000 -1.064837 -1.064837
177.150000 -1.064837 -1.064837
177.200000 -1.064837 -1.064837
177.250000 -1.064837 -1.064837
177.300000 -1.064837 -1.064837
177.350000 -1.064837 -1.064837
177.400000 -1.064837 -1.064837
177.450000 -1.064837 -1.064837
177.500000 -1.064837 -1.064837
177.550000 -1.064837 -1.064837
177.600000 -1.064837 -1.064837
177.650000 -1.064837 -1.064837
177.700000 -1.064837 -1.064837
177.750000 -1.064837 -1.064837
177.800000 -1.064837 -1.064837
177.850000 -1.064837 -1.064837
177.900000 -1.064837 -1.064837
177.950000 -1.064837 -1.064837
178.000000 -1.064837 -1.064837
178.050000 -1.064837 -1.064837
178.100000 -1.064837 -1.064837
178.150000 -1.064837 -1.064837
178.200000 -1.064837 -1.064837
178.250000 -1.064837 -1.064837
178.300000 -1.064837 -1.064837
178.350000 -1.064837 -1.064837
178.400000 -1.064837 -1.064837
178.450000 -1.064837 -1.064837
178.500000 -1.064837 -1.064837
178.550000 -1.064837 -1.064837
178.600000 -1.064837 -1.064837
178.650000 -1.064837 -1.064837
178.700000 -1.064837 -1.064837
178.750000 -1.064837 -1.064837
178.800000 -1.064837 -1.064837
178.850000 -1.064837 -1.064837
178.900000 -1.064837 -1.064837
178.950000 -1.064837 -1.064837
179.000000 -1.064837 -1.064837
179.050000 -1.064837 -1.064837
179.100000 -1.064837 -1.064837
179.150000 -1.064837 -1.064837
179.200000 -1.064837 -1.064837
179.250000 -1.064837 -1.064837
179.300000 -1.064837 -1.064837
179.350000 -1.064837 -1.064837
179.400000 -1.064837 -1.064837
179.450000 -1.064837 -1.064837
179.500000 -1.064837 -1.064837
179.550000 -1.064837 -1.064837
179.600000 -1.064837 -1.064837
179.650000 -1.064837 -1.064837
179.700000 -1.064837 -1.064837
179.750000 -1.064837 -1.064837
179.800000 -1.064837 -1.064837
179.850000 -1.064837 -1.064837
179.900000 -1.064837 -1.064837
179.950000 -1.064837 -1.064837
180.000000 -1.064837 -1.064837
180.050000 -1.064837 -1.064837
180.100000 -1.064837 -1.064837
180.150000 -1.064837 -1.064837
180.200000 -1.064837 -1.064837
180.250000 -1.064837 -1.064837
180.300000 -1.064837 -1.064837
180.350000 -1.064837 -1.064837
180.400000 -1.064837 -1.064837
180.450000 -1.064837 -1.064837
180.500000 -1.064837 -1.064837
180.550000 -1.064837 -1.064837
180.600000 -1.064837 -1.064837
180.650000 -1.064837 -1.064837
180.700000 -1.064837 -1.064837
180.750000 -1.064837 -1.064837
180.800000 -1.064837 -1.064837
180.850000 -1.064837 -1.064837
180.900000 -1.064837 -1.064837
180.950000 -1.064837 -1.064837
181.000000 -1.064837 -1.064837
181.050000 -1.064837 -1.064837
181.100000 -1.064837 -1.064837
181.150000 -1.064837 -1.064837
181.200000 -1.064837 -1.064837
181.250000 -1.064837 -1.064837
181.300000 -1.064837 -1.064837
181.350000 -1.064837 -1.064837
181.400000 -1.064837 -1.064837
181.450000 -1.064837 -1.064837
181.500000 -1.064837 -1.064837
181.550000 -1.064837 -1.064837
181.600000 -1.064837 -1.064837
181.650000 -1.064837 -1.064837
181.700000 -1.064837 -1.064837
181.750000 -1.064837 -1.064837
181.800000 -1.064837 -1.064837
181.850000 -1.064837 -1.064837
181.900000 -1.064837 -1.064837
181.950000 -1.064837 -1.064837
182.000000 -1.064837 -1.064837
182.050000 -1.064837 -1.064837
182.100000 -1.064837 -1.064837
182.150000 -1.064837 -1.064837
182.200000 -1.064837 -1.064837
182.250000 -1.064837 -1.064837
182.300000 -1.064837 -1.064837
182.350000 -1.064837 -1.064837
182.400000 -1.064837 -1.064837
182.450000 -1.064837 -1.064837
182.500000 -1.064837 -1.064837
182.550000 -1.064837 -1.064837
182.600000 -1.064837 -1.064837
182.650000 -1.064837 -1.064837
182.700000 -1.064837 -1.064837
182.750000 -1.064837 -1.064837
182.800000 -1.064837 -1.064837
182.850000 -1.064837 -1.064837
182.900000 -1.064837 -1.064837
182.950000 -1.064837 -1.064837
183.000000 -1.064837 -1.064837
183.050000 -1.064837 -1.064837
183.100000 -1.064837 -1.064837
183.150000 -1.064837 -1.064837
183.200000 -1.064837 -1.064837
183.250000 -1.064837 -1.064837
183.300000 -1.064837 -1.064837
183.350000 -1.064837 -1.064837
183.400000 -1.064837 -1.064837
183.450000 -1.064837 -1.064837
183.500000 -1.064837 -1.064837
183.550000 -1.064837 -1.064837
183.600000 -1.064837 -1.064837
183.650000 -1.064837 -1.064837
183.700000 -1.064837 -1.064837
183.750000 -1.064837 -1.064837
183.800000 -1.064837 -1.064837
183.850000 -1.064837 -1.064837
183.900000 -1.064837 -1.064837
183.950000 -1.064837 -1.064837
184.000000 -1.064837 -1.064837
184.050000 -1.064837 -1.064837
184.100000 -1.064837 -1.064837
184.150000 -1.064837 -1.064837
184.200000 -1.064837 -1.064837
184.250000 -1.064837 -1.064837
184.300000 -1.064837 -1.064837
184.350000 -1.064837 -1.064837
184.400000 -1.064837 -1.064837
184.450000 -1.064837 -1.064837
184.500000 -1.064837 -1.064837
184.550000 -1.064837 -1.064837
184.600000 -1.064837 -1.064837
184.650000 -1.064837 -1.064837
184.700000 -1.064837 -1.064837
184.750000 -1.064837 -1.064837
184.800000 -1.064837 -1.064837
184.850000 -1.064837 -1.064837
184.900000 -1.064837 -1.064837
184.950000 -1.064837 -1.064837
185.000000 -1.064837 -1.064837
185.050000 -1.064837 -1.064837
185.100000 -1.064837 -1.064837
185.150000 -1.064837 -1.064837
185.200000 -1.064837 -1.064837
185.250000 -1.064837 -1.064837
185.300000 -1.064837 -1.064837
185.350000 -1.064837 -1.064837
185.400000 -1.064837 -1.064837
185.450000 -1.064837 -1.064837
185.500000 -1.064837 -1.064837
185.550000 -1.064837 -1.064837
185.600000 -1.064837 -1.064837
185.650000 -1.064837 -1.064837
185.700000 -1.064837 -1.064837
185.750000 -1.064837 -1.064837
185.800000 -1.064837 -1.064837
185.850000 -1.064837 -1.064837
185.900000 -1.064837 -1.064837
185.950000 -1.064837 -1.064837
186.000000 -1.064837 -1.064837
186.050000 -1.064837 -1.064837
186.100000 -1.064837 -1.064837
186.150000 -1.064837 -1.064837
186.200000 -1.064837 -1.064837
186.250000 -1.064837 -1.064837
186.300000 -1.064837 -1.064837
186.350000 -1.064837 -1.064837
186.400000 -1.064837 -1.064837
186.450000 -1.064837 -1.064837
186.500000 -1.064837 -1.064837
186.550000 -1.064837 -1.064837
186.600000 -1.064837 -1.064837
186.650000 -1.064837 -1.064837
186.700000 -1.064837 -1.064837
186.750000 -1.064837 -1.064837
186.800000 -1.064837 -1.064837
186.850000 -1.064837 -1.064837
186.900000 -1.064837 -1.064837
186.950000 -1.064837 -1.064837
187.000000 -1.064837 -1.064837
