fit_time[ns] Functional_fit[mV] Thermal_fit[mV]
3.700000 18.080933 17.303764
3.750000 17.880648 16.934522
3.800000 17.662919 16.573055
3.850000 17.424289 16.219192
3.900000 17.162043 15.872764
3.950000 16.874268 15.533608
4.000000 16.559885 15.201565
4.050000 16.218662 14.876478
4.100000 15.851208 14.558194
4.150000 15.458944 14.246566
4.200000 15.044057 13.941447
4.250000 14.609433 13.642696
4.300000 14.158575 13.350174
4.350000 13.695505 13.063745
4.400000 13.224658 12.783278
4.450000 12.750761 12.508642
4.500000 12.278715 12.239711
4.550000 11.813461 11.976363
4.600000 11.359862 11.718475
4.650000 10.922576 11.465931
4.700000 10.505941 11.218616
4.750000 10.113868 10.976416
4.800000 9.749748 10.739221
4.850000 9.416367 10.506925
4.900000 9.115844 10.279422
4.950000 8.849583 10.056610
5.000000 8.618242 9.838387
5.050000 8.421722 9.624657
5.100000 8.259176 9.415322
5.150000 8.129036 9.210290
5.200000 8.029057 9.009469
5.250000 7.956376 8.812769
5.300000 7.907588 8.620102
5.350000 7.878835 8.431383
5.400000 7.865904 8.246528
5.450000 7.864331 8.065456
5.500000 7.869513 7.888085
5.550000 7.876822 7.714339
5.600000 7.881720 7.544140
5.650000 7.879861 7.377413
5.700000 7.867205 7.214086
5.750000 7.840102 7.054087
5.800000 7.795386 6.897345
5.850000 7.730440 6.743793
5.900000 7.643256 6.593362
5.950000 7.532475 6.445989
6.000000 7.397413 6.301609
6.050000 7.238069 6.160158
6.100000 7.055116 6.021577
6.150000 6.849876 5.885804
6.200000 6.624277 5.752781
6.250000 6.380801 5.622451
6.300000 6.122410 5.494758
6.350000 5.852472 5.369647
6.400000 5.574668 5.247063
6.450000 5.292897 5.126956
6.500000 5.011176 5.009272
6.550000 4.733539 4.893962
6.600000 4.463934 4.780976
6.650000 4.206128 4.670267
6.700000 3.963611 4.561787
6.750000 3.739513 4.455490
6.800000 3.536529 4.351331
6.850000 3.356857 4.249265
6.900000 3.202148 4.149251
6.950000 3.073465 4.051244
7.000000 2.971270 3.955205
7.050000 2.895411 3.861091
7.100000 2.845136 3.768865
7.150000 2.819115 3.678487
7.200000 2.815476 3.589918
7.250000 2.831862 3.503122
7.300000 2.865486 3.418063
7.350000 2.913212 3.334705
7.400000 2.971627 3.253012
7.450000 3.037136 3.172952
7.500000 3.106044 3.094489
7.550000 3.174653 3.017593
7.600000 3.239351 2.942230
7.650000 3.296699 2.868370
7.700000 3.343516 2.795982
7.750000 3.376951 2.725036
7.800000 3.394551 2.655502
7.850000 3.394315 2.587351
7.900000 3.374742 2.520556
7.950000 3.334856 2.455089
8.000000 3.274231 2.390923
8.050000 3.192987 2.328032
8.100000 3.091788 2.266389
8.150000 2.971814 2.205969
8.200000 2.834729 2.146748
8.250000 2.682630 2.088701
8.300000 2.517994 2.031804
8.350000 2.343610 1.976035
8.400000 2.162507 1.921370
8.450000 1.977874 1.867787
8.500000 1.792982 1.815264
8.550000 1.611097 1.763779
8.600000 1.435406 1.713313
8.650000 1.268928 1.663844
8.700000 1.114453 1.615352
8.750000 0.974463 1.567817
8.800000 0.851083 1.521220
8.850000 0.746025 1.475543
8.900000 0.660553 1.430767
8.950000 0.595457 1.386873
9.000000 0.551034 1.343844
9.050000 0.527088 1.301663
9.100000 0.522942 1.260312
9.150000 0.537456 1.219775
9.200000 0.569059 1.180036
9.250000 0.615796 1.141078
9.300000 0.675377 1.102887
9.350000 0.745238 1.065445
9.400000 0.822609 1.028740
9.450000 0.904577 0.992755
9.500000 0.988171 0.957477
9.550000 1.070424 0.922891
9.600000 1.148453 0.888983
9.650000 1.219528 0.855740
9.700000 1.281137 0.823149
9.750000 1.331043 0.791197
9.800000 1.367342 0.759871
9.850000 1.388500 0.729158
9.900000 1.393391 0.699047
9.950000 1.381316 0.669524
10.000000 1.352021 0.640579
10.050000 1.305693 0.612201
10.100000 1.242954 0.584377
10.150000 1.164839 0.557097
10.200000 1.072765 0.530350
10.250000 0.968493 0.504125
10.300000 0.854079 0.478412
10.350000 0.731823 0.453201
10.400000 0.604205 0.428483
10.450000 0.473824 0.404246
10.500000 0.343331 0.380482
10.550000 0.215364 0.357181
10.600000 0.092481 0.334334
10.650000 -0.022901 0.311932
10.700000 -0.128566 0.289967
10.750000 -0.222552 0.268429
10.800000 -0.303195 0.247311
10.850000 -0.369168 0.226603
10.900000 -0.419514 0.206298
10.950000 -0.453659 0.186388
11.000000 -0.471428 0.166865
11.050000 -0.473045 0.147722
11.100000 -0.459118 0.128950
11.150000 -0.430627 0.110544
11.200000 -0.388892 0.092494
11.250000 -0.335536 0.074795
11.300000 -0.272446 0.057439
11.350000 -0.201719 0.040420
11.400000 -0.125611 0.023732
11.450000 -0.046479 0.007367
11.500000 0.033280 -0.008681
11.550000 0.111285 -0.024418
11.600000 0.185234 -0.039850
11.650000 0.252955 -0.054983
11.700000 0.312462 -0.069823
11.750000 0.362001 -0.084376
11.800000 0.400092 -0.098647
11.850000 0.425558 -0.112642
11.900000 0.437556 -0.126367
11.950000 0.435591 -0.139825
12.000000 0.419526 -0.153024
12.050000 0.389582 -0.165968
12.100000 0.346324 -0.178661
12.150000 0.290650 -0.191109
12.200000 0.223760 -0.203317
12.250000 0.147125 -0.215289
12.300000 0.062447 -0.227030
12.350000 -0.028385 -0.238544
12.400000 -0.123345 -0.249836
12.450000 -0.220321 -0.260911
12.500000 -0.317167 -0.271772
12.550000 -0.411759 -0.282423
12.600000 -0.502046 -0.292869
12.650000 -0.586102 -0.303114
12.700000 -0.662168 -0.313161
12.750000 -0.728697 -0.323015
12.800000 -0.784393 -0.332679
12.850000 -0.828233 -0.342157
12.900000 -0.859497 -0.351453
12.950000 -0.877776 -0.360569
13.000000 -0.882985 -0.369510
13.050000 -0.875357 -0.378280
13.100000 -0.855438 -0.386880
13.150000 -0.824067 -0.395316
13.200000 -0.782351 -0.403589
13.250000 -0.731641 -0.411703
13.300000 -0.673490 -0.419661
13.350000 -0.609613 -0.427467
13.400000 -0.541848 -0.435122
13.450000 -0.472104 -0.442631
13.500000 -0.402313 -0.449995
13.550000 -0.334388 -0.457218
13.600000 -0.270168 -0.464302
13.650000 -0.211379 -0.471251
13.700000 -0.159591 -0.478066
13.750000 -0.116180 -0.484751
13.800000 -0.082297 -0.491307
13.850000 -0.058840 -0.497738
13.900000 -0.046440 -0.504045
13.950000 -0.045441 -0.510232
14.000000 -0.055900 -0.516300
14.050000 -0.077588 -0.522252
14.100000 -0.109994 -0.528090
14.150000 -0.152349 -0.533816
14.200000 -0.203639 -0.539432
14.250000 -0.262641 -0.544941
14.300000 -0.327949 -0.550345
14.350000 -0.398015 -0.555645
14.400000 -0.471185 -0.560844
14.450000 -0.545746 -0.565944
14.500000 -0.619965 -0.570946
14.550000 -0.692134 -0.575852
14.600000 -0.760612 -0.580665
14.650000 -0.823863 -0.585385
14.700000 -0.880497 -0.590016
14.750000 -0.929298 -0.594558
14.800000 -0.969257 -0.599013
14.850000 -0.999589 -0.603384
14.900000 -1.019757 -0.607671
14.950000 -1.029478 -0.611876
15.000000 -1.028727 -0.616000
15.050000 -1.017737 -0.620046
15.100000 -0.996992 -0.624015
15.150000 -0.967209 -0.627909
15.200000 -0.929316 -0.631728
15.250000 -0.884435 -0.635474
15.300000 -0.833844 -0.639149
15.350000 -0.778947 -0.642753
15.400000 -0.721238 -0.646289
15.450000 -0.662264 -0.649758
15.500000 -0.603583 -0.653161
15.550000 -0.546729 -0.656498
15.600000 -0.493173 -0.659773
15.650000 -0.444284 -0.662985
15.700000 -0.401304 -0.666135
15.750000 -0.365311 -0.669226
15.800000 -0.337197 -0.672258
15.850000 -0.317648 -0.675233
15.900000 -0.307132 -0.678150
15.950000 -0.305884 -0.681013
16.000000 -0.313907 -0.683821
16.050000 -0.330973 -0.686575
16.100000 -0.356631 -0.689277
16.150000 -0.390223 -0.691928
16.200000 -0.430897 -0.694528
16.250000 -0.477637 -0.697079
16.300000 -0.529284 -0.699582
16.350000 -0.584571 -0.702037
16.400000 -0.642151 -0.704445
16.450000 -0.700636 -0.706808
16.500000 -0.758627 -0.709126
16.550000 -0.814754 -0.711399
16.600000 -0.867703 -0.713630
16.650000 -0.916254 -0.715818
16.700000 -0.959308 -0.717965
16.750000 -0.995911 -0.720071
16.800000 -1.025281 -0.722137
16.850000 -1.046818 -0.724164
16.900000 -1.060125 -0.726153
16.950000 -1.065010 -0.728104
17.000000 -1.061491 -0.730018
17.050000 -1.049793 -0.731895
17.100000 -1.030339 -0.733737
17.150000 -1.003740 -0.735544
17.200000 -0.970775 -0.737317
17.250000 -0.932373 -0.739056
17.300000 -0.889585 -0.740763
17.350000 -0.843559 -0.742437
17.400000 -0.795510 -0.744079
17.450000 -0.746691 -0.745690
17.500000 -0.698356 -0.747271
17.550000 -0.651736 -0.748822
17.600000 -0.608005 -0.750344
17.650000 -0.568252 -0.751836
17.700000 -0.533455 -0.753301
17.750000 -0.504458 -0.754738
17.800000 -0.481952 -0.756147
17.850000 -0.466460 -0.757530
17.900000 -0.458324 -0.758887
17.950000 -0.457700 -0.760218
18.000000 -0.464558 -0.761524
18.050000 -0.478678 -0.762806
18.100000 -0.499667 -0.764063
18.150000 -0.526962 -0.765296
18.200000 -0.559851 -0.766506
18.250000 -0.597491 -0.767693
18.300000 -0.638929 -0.768858
18.350000 -0.683129 -0.770001
18.400000 -0.728995 -0.771122
18.450000 -0.775403 -0.772222
18.500000 -0.821226 -0.773302
18.550000 -0.865363 -0.774361
18.600000 -0.906768 -0.775400
18.650000 -0.944470 -0.776419
18.700000 -0.977602 -0.777419
18.750000 -1.005418 -0.778400
18.800000 -1.027311 -0.779363
18.850000 -1.042827 -0.780308
18.900000 -1.051674 -0.781235
18.950000 -1.053728 -0.782144
19.000000 -1.049033 -0.783036
19.050000 -1.037799 -0.783912
19.100000 -1.020398 -0.784770
19.150000 -0.997345 -0.785613
19.200000 -0.969295 -0.786440
19.250000 -0.937014 -0.787251
19.300000 -0.901366 -0.788047
19.350000 -0.863291 -0.788828
19.400000 -0.823775 -0.789594
19.450000 -0.783830 -0.790346
19.500000 -0.744468 -0.791084
19.550000 -0.706675 -0.791808
19.600000 -0.671388 -0.792518
19.650000 -0.639470 -0.793215
19.700000 -0.611692 -0.793898
19.750000 -0.588714 -0.794569
19.800000 -0.571070 -0.795227
19.850000 -0.559156 -0.795873
19.900000 -0.553221 -0.796507
19.950000 -0.553364 -0.797129
20.000000 -0.559532 -0.797739
20.050000 -0.571522 -0.798337
20.100000 -0.588991 -0.798925
20.150000 -0.611462 -0.799501
20.200000 -0.638340 -0.800067
20.250000 -0.668927 -0.800621
20.300000 -0.702440 -0.801166
20.350000 -0.738032 -0.801700
20.400000 -0.774814 -0.802224
20.450000 -0.811876 -0.802738
20.500000 -0.848310 -0.803243
20.550000 -0.883235 -0.803738
20.600000 -0.915815 -0.804224
20.650000 -0.945282 -0.804701
20.700000 -0.970950 -0.805169
20.750000 -0.992238 -0.805628
20.800000 -1.008677 -0.806078
20.850000 -1.019924 -0.806520
20.900000 -1.025766 -0.806954
20.950000 -1.026129 -0.807379
21.000000 -1.021072 -0.807797
21.050000 -1.010790 -0.808207
21.100000 -0.995601 -0.808609
21.150000 -0.975946 -0.809003
21.200000 -0.952368 -0.809390
21.250000 -0.925502 -0.809770
21.300000 -0.896057 -0.810143
21.350000 -0.864798 -0.810508
21.400000 -0.832529 -0.810867
21.450000 -0.800066 -0.811219
21.500000 -0.768225 -0.811565
21.550000 -0.737794 -0.811904
21.600000 -0.709520 -0.812237
21.650000 -0.684087 -0.812563
21.700000 -0.662103 -0.812884
21.750000 -0.644083 -0.813198
21.800000 -0.630437 -0.813506
21.850000 -0.621465 -0.813809
21.900000 -0.617345 -0.814106
21.950000 -0.618135 -0.814398
22.000000 -0.623770 -0.814684
22.050000 -0.634066 -0.814964
22.100000 -0.648726 -0.815240
22.150000 -0.667346 -0.815510
22.200000 -0.689430 -0.815775
22.250000 -0.714401 -0.816035
22.300000 -0.741617 -0.816291
22.350000 -0.770388 -0.816541
22.400000 -0.799990 -0.816787
22.450000 -0.829688 -0.817028
22.500000 -0.858753 -0.817265
22.550000 -0.886479 -0.817498
22.600000 -0.912199 -0.817726
22.650000 -0.935304 -0.817949
22.700000 -0.955256 -0.818169
22.750000 -0.971601 -0.818384
22.800000 -0.983978 -0.818596
22.850000 -0.992129 -0.818803
22.900000 -0.995903 -0.819007
22.950000 -0.995258 -0.819207
23.000000 -0.990262 -0.819403
23.050000 -0.981091 -0.819595
23.100000 -0.968021 -0.819784
23.150000 -0.951422 -0.819969
23.200000 -0.931747 -0.820151
23.250000 -0.909520 -0.820329
23.300000 -0.885323 -0.820504
23.350000 -0.859780 -0.820676
23.400000 -0.833542 -0.820845
23.450000 -0.807270 -0.821010
23.500000 -0.781617 -0.821173
23.550000 -0.757217 -0.821332
23.600000 -0.734664 -0.821488
23.650000 -0.714499 -0.821642
23.700000 -0.697199 -0.821792
23.750000 -0.683167 -0.821940
23.800000 -0.672717 -0.822085
23.850000 -0.666073 -0.822227
23.900000 -0.663363 -0.822367
23.950000 -0.664615 -0.822504
24.000000 -0.669759 -0.822639
24.050000 -0.678630 -0.822771
24.100000 -0.690970 -0.822900
24.150000 -0.706442 -0.823027
24.200000 -0.724631 -0.823152
24.250000 -0.745062 -0.823274
24.300000 -0.767208 -0.823394
24.350000 -0.790506 -0.823512
24.400000 -0.814371 -0.823628
24.450000 -0.838207 -0.823742
24.500000 -0.861430 -0.823853
24.550000 -0.883473 -0.823962
24.600000 -0.903807 -0.824070
24.650000 -0.921949 -0.824175
24.700000 -0.937477 -0.824278
24.750000 -0.950037 -0.824380
24.800000 -0.959353 -0.824479
24.850000 -0.965231 -0.824577
24.900000 -0.967565 -0.824673
24.950000 -0.966338 -0.824767
25.000000 -0.961621 -0.824859
25.050000 -0.953570 -0.824950
25.100000 -0.942422 -0.825039
25.150000 -0.928489 -0.825126
25.200000 -0.912146 -0.825211
25.250000 -0.893828 -0.825296
25.300000 -0.874009 -0.825378
25.350000 -0.853199 -0.825459
25.400000 -0.831924 -0.825538
25.450000 -0.810719 -0.825616
25.500000 -0.790109 -0.825693
25.550000 -0.770600 -0.825768
25.600000 -0.752664 -0.825842
25.650000 -0.736730 -0.825914
25.700000 -0.723173 -0.825985
25.750000 -0.712304 -0.826055
25.800000 -0.704366 -0.826123
25.850000 -0.699525 -0.826190
25.900000 -0.697868 -0.826256
25.950000 -0.699406 -0.826320
26.000000 -0.704067 -0.826384
26.050000 -0.711703 -0.826446
26.100000 -0.722096 -0.826507
26.150000 -0.734961 -0.826567
26.200000 -0.749954 -0.826626
26.250000 -0.766683 -0.826684
26.300000 -0.784716 -0.826740
26.350000 -0.803596 -0.826796
26.400000 -0.822847 -0.826850
26.450000 -0.841991 -0.826904
26.500000 -0.860555 -0.826957
26.550000 -0.878089 -0.827008
26.600000 -0.894171 -0.827059
26.650000 -0.908420 -0.827108
26.700000 -0.920504 -0.827157
26.750000 -0.930149 -0.827205
26.800000 -0.937143 -0.827252
26.850000 -0.941342 -0.827298
26.900000 -0.942675 -0.827343
26.950000 -0.941139 -0.827388
27.000000 -0.936805 -0.827431
27.050000 -0.929812 -0.827474
27.100000 -0.920360 -0.827516
27.150000 -0.908713 -0.827557
27.200000 -0.895182 -0.827598
27.250000 -0.880124 -0.827637
27.300000 -0.863927 -0.827676
27.350000 -0.847008 -0.827714
27.400000 -0.829792 -0.827752
27.450000 -0.812709 -0.827789
27.500000 -0.796182 -0.827825
27.550000 -0.780615 -0.827860
27.600000 -0.766384 -0.827895
27.650000 -0.753826 -0.827929
27.700000 -0.743237 -0.827963
27.750000 -0.734856 -0.827996
27.800000 -0.728870 -0.828028
27.850000 -0.725401 -0.828060
27.900000 -0.724509 -0.828091
27.950000 -0.726189 -0.828121
28.000000 -0.730372 -0.828151
28.050000 -0.736930 -0.828181
28.100000 -0.745675 -0.828210
28.150000 -0.756368 -0.828238
28.200000 -0.768725 -0.828266
28.250000 -0.782422 -0.828293
28.300000 -0.797107 -0.828320
28.350000 -0.812407 -0.828346
28.400000 -0.827937 -0.828372
28.450000 -0.843311 -0.828397
28.500000 -0.858152 -0.828422
28.550000 -0.872097 -0.828446
28.600000 -0.884813 -0.828470
28.650000 -0.895999 -0.828494
28.700000 -0.905394 -0.828517
28.750000 -0.912787 -0.828540
28.800000 -0.918015 -0.828562
28.850000 -0.920975 -0.828584
28.900000 -0.921616 -0.828605
28.950000 -0.919949 -0.828626
29.000000 -0.916041 -0.828647
29.050000 -0.910011 -0.828667
29.100000 -0.902034 -0.828687
29.150000 -0.892327 -0.828706
29.200000 -0.881150 -0.828725
29.250000 -0.868796 -0.828744
29.300000 -0.855582 -0.828763
29.350000 -0.841847 -0.828781
29.400000 -0.827935 -0.828798
29.450000 -0.814194 -0.828816
29.500000 -0.800961 -0.828833
29.550000 -0.788560 -0.828850
29.600000 -0.777288 -0.828866
29.650000 -0.767413 -0.828882
29.700000 -0.759164 -0.828898
29.750000 -0.752729 -0.828914
29.800000 -0.748248 -0.828929
29.850000 -0.745811 -0.828944
29.900000 -0.745457 -0.828959
29.950000 -0.747172 -0.828973
30.000000 -0.750893 -0.828987
30.050000 -0.756506 -0.829001
30.100000 -0.763853 -0.829015
30.150000 -0.772733 -0.829028
30.200000 -0.782910 -0.829042
30.250000 -0.794120 -0.829054
30.300000 -0.806074 -0.829067
30.350000 -0.818468 -0.829080
30.400000 -0.830993 -0.829092
30.450000 -0.843336 -0.829104
30.500000 -0.855194 -0.829116
30.550000 -0.866280 -0.829127
30.600000 -0.876328 -0.829138
30.650000 -0.885101 -0.829150
30.700000 -0.892396 -0.829161
30.750000 -0.898047 -0.829171
30.800000 -0.901934 -0.829182
30.850000 -0.903979 -0.829192
30.900000 -0.904152 -0.829202
30.950000 -0.902468 -0.829212
31.000000 -0.898990 -0.829222
31.050000 -0.893823 -0.829232
31.100000 -0.887113 -0.829241
31.150000 -0.879043 -0.829250
31.200000 -0.869828 -0.829259
31.250000 -0.859707 -0.829268
31.300000 -0.848942 -0.829277
31.350000 -0.837805 -0.829285
31.400000 -0.826577 -0.829294
31.450000 -0.815536 -0.829302
31.500000 -0.804954 -0.829310
31.550000 -0.795088 -0.829318
31.600000 -0.786175 -0.829326
31.650000 -0.778424 -0.829334
31.700000 -0.772016 -0.829341
31.750000 -0.767095 -0.829349
31.800000 -0.763767 -0.829356
31.850000 -0.762098 -0.829363
31.900000 -0.762110 -0.829370
31.950000 -0.763787 -0.829377
32.000000 -0.767068 -0.829384
32.050000 -0.771856 -0.829390
32.100000 -0.778015 -0.829397
32.150000 -0.785381 -0.829403
32.200000 -0.793756 -0.829409
32.250000 -0.802924 -0.829415
32.300000 -0.812649 -0.829421
32.350000 -0.822684 -0.829427
32.400000 -0.832779 -0.829433
32.450000 -0.842683 -0.829439
32.500000 -0.852154 -0.829444
32.550000 -0.860960 -0.829450
32.600000 -0.868893 -0.829455
32.650000 -0.875765 -0.829461
32.700000 -0.881418 -0.829466
32.750000 -0.885724 -0.829471
32.800000 -0.888593 -0.829476
32.850000 -0.889968 -0.829481
32.900000 -0.889832 -0.829486
32.950000 -0.888204 -0.829490
33.000000 -0.885141 -0.829495
33.050000 -0.880734 -0.829499
33.100000 -0.875107 -0.829504
33.150000 -0.868411 -0.829508
33.200000 -0.860825 -0.829513
33.250000 -0.852545 -0.829517
33.300000 -0.843784 -0.829521
33.350000 -0.834764 -0.829525
33.400000 -0.825711 -0.829529
33.450000 -0.816849 -0.829533
33.500000 -0.808396 -0.829537
33.550000 -0.800557 -0.829541
33.600000 -0.793519 -0.829544
33.650000 -0.787447 -0.829548
33.700000 -0.782482 -0.829551
33.750000 -0.778735 -0.829555
33.800000 -0.776286 -0.829558
33.850000 -0.775180 -0.829562
33.900000 -0.775432 -0.829565
33.950000 -0.777021 -0.829568
34.000000 -0.779892 -0.829572
34.050000 -0.783962 -0.829575
34.100000 -0.789117 -0.829578
34.150000 -0.795218 -0.829581
34.200000 -0.802103 -0.829584
34.250000 -0.809595 -0.829587
34.300000 -0.817501 -0.829590
34.350000 -0.825621 -0.829592
34.400000 -0.833753 -0.829595
34.450000 -0.841695 -0.829598
34.500000 -0.849252 -0.829600
34.550000 -0.856242 -0.829603
34.600000 -0.862498 -0.829606
34.650000 -0.867873 -0.829608
34.700000 -0.872244 -0.829611
34.750000 -0.875513 -0.829613
34.800000 -0.877611 -0.829615
34.850000 -0.878500 -0.829618
34.900000 -0.878169 -0.829620
34.950000 -0.876641 -0.829622
35.000000 -0.873966 -0.829624
35.050000 -0.870222 -0.829627
35.100000 -0.865514 -0.829629
35.150000 -0.859969 -0.829631
35.200000 -0.853732 -0.829633
35.250000 -0.846966 -0.829635
35.300000 -0.839844 -0.829637
35.350000 -0.832545 -0.829639
35.400000 -0.825253 -0.829641
35.450000 -0.818147 -0.829643
35.500000 -0.811402 -0.829644
35.550000 -0.805180 -0.829646
35.600000 -0.799631 -0.829648
35.650000 -0.794883 -0.829650
35.700000 -0.791047 -0.829651
35.750000 -0.788206 -0.829653
35.800000 -0.786422 -0.829655
35.850000 -0.785726 -0.829656
35.900000 -0.786125 -0.829658
35.950000 -0.787597 -0.829659
36.000000 -0.790093 -0.829661
36.050000 -0.793542 -0.829662
36.100000 -0.797847 -0.829664
36.150000 -0.802894 -0.829665
36.200000 -0.808548 -0.829667
36.250000 -0.814665 -0.829668
36.300000 -0.821088 -0.829670
36.350000 -0.827653 -0.829671
36.400000 -0.834199 -0.829672
36.450000 -0.840562 -0.829673
36.500000 -0.846588 -0.829675
36.550000 -0.852131 -0.829676
36.600000 -0.857058 -0.829677
36.650000 -0.861256 -0.829678
36.700000 -0.864627 -0.829680
36.750000 -0.867097 -0.829681
36.800000 -0.868616 -0.829682
36.850000 -0.869154 -0.829683
36.900000 -0.868711 -0.829684
36.950000 -0.867306 -0.829685
37.000000 -0.864986 -0.829686
37.050000 -0.861817 -0.829687
37.100000 -0.857887 -0.829688
37.150000 -0.853301 -0.829689
37.200000 -0.848181 -0.829690
37.250000 -0.842658 -0.829691
37.300000 -0.836873 -0.829692
37.350000 -0.830972 -0.829693
37.400000 -0.825103 -0.829694
37.450000 -0.819411 -0.829695
37.500000 -0.814034 -0.829696
37.550000 -0.809102 -0.829697
37.600000 -0.804732 -0.829697
37.650000 -0.801027 -0.829698
37.700000 -0.798071 -0.829699
37.750000 -0.795929 -0.829700
37.800000 -0.794646 -0.829701
37.850000 -0.794243 -0.829701
37.900000 -0.794723 -0.829702
37.950000 -0.796062 -0.829703
38.000000 -0.798220 -0.829704
38.050000 -0.801133 -0.829704
38.100000 -0.804722 -0.829705
38.150000 -0.808891 -0.829706
38.200000 -0.813530 -0.829706
38.250000 -0.818520 -0.829707
38.300000 -0.823733 -0.829708
38.350000 -0.829038 -0.829708
38.400000 -0.834302 -0.829709
38.450000 -0.839397 -0.829709
38.500000 -0.844197 -0.829710
38.550000 -0.848588 -0.829711
38.600000 -0.852464 -0.829711
38.650000 -0.855736 -0.829712
38.700000 -0.858329 -0.829712
38.750000 -0.860186 -0.829713
38.800000 -0.861269 -0.829713
38.850000 -0.861560 -0.829714
38.900000 -0.861060 -0.829715
38.950000 -0.859790 -0.829715
39.000000 -0.857789 -0.829716
39.050000 -0.855115 -0.829716
39.100000 -0.851841 -0.829716
39.150000 -0.848055 -0.829717
39.200000 -0.843856 -0.829717
39.250000 -0.839352 -0.829718
39.300000 -0.834658 -0.829718
39.350000 -0.829892 -0.829719
39.400000 -0.825172 -0.829719
39.450000 -0.820616 -0.829720
39.500000 -0.816334 -0.829720
39.550000 -0.812429 -0.829720
39.600000 -0.808993 -0.829721
39.650000 -0.806107 -0.829721
39.700000 -0.803837 -0.829722
39.750000 -0.802231 -0.829722
39.800000 -0.801322 -0.829722
39.850000 -0.801126 -0.829723
39.900000 -0.801639 -0.829723
39.950000 -0.802842 -0.829723
40.000000 -0.804697 -0.829724
40.050000 -0.807152 -0.829724
40.100000 -0.810138 -0.829724
40.150000 -0.813577 -0.829725
40.200000 -0.817379 -0.829725
40.250000 -0.821446 -0.829725
40.300000 -0.825673 -0.829726
40.350000 -0.829956 -0.829726
40.400000 -0.834187 -0.829726
40.450000 -0.838263 -0.829727
40.500000 -0.842084 -0.829727
40.550000 -0.845558 -0.829727
40.600000 -0.848603 -0.829727
40.650000 -0.851148 -0.829728
40.700000 -0.853136 -0.829728
40.750000 -0.854524 -0.829728
40.800000 -0.855283 -0.829729
40.850000 -0.855402 -0.829729
40.900000 -0.854885 -0.829729
40.950000 -0.853751 -0.829729
41.000000 -0.852034 -0.829730
41.050000 -0.849784 -0.829730
41.100000 -0.847062 -0.829730
41.150000 -0.843940 -0.829730
41.200000 -0.840500 -0.829730
41.250000 -0.836831 -0.829731
41.300000 -0.833025 -0.829731
41.350000 -0.829178 -0.829731
41.400000 -0.825387 -0.829731
41.450000 -0.821743 -0.829731
41.500000 -0.818336 -0.829732
41.550000 -0.815248 -0.829732
41.600000 -0.812551 -0.829732
41.650000 -0.810308 -0.829732
41.700000 -0.808569 -0.829732
41.750000 -0.807373 -0.829733
41.800000 -0.806743 -0.829733
41.850000 -0.806688 -0.829733
41.900000 -0.807205 -0.829733
41.950000 -0.808273 -0.829733
42.000000 -0.809860 -0.829733
42.050000 -0.811922 -0.829734
42.100000 -0.814403 -0.829734
42.150000 -0.817237 -0.829734
42.200000 -0.820349 -0.829734
42.250000 -0.823661 -0.829734
42.300000 -0.827087 -0.829734
42.350000 -0.830542 -0.829735
42.400000 -0.833939 -0.829735
42.450000 -0.837197 -0.829735
42.500000 -0.840235 -0.829735
42.550000 -0.842980 -0.829735
42.600000 -0.845369 -0.829735
42.650000 -0.847345 -0.829735
42.700000 -0.848864 -0.829736
42.750000 -0.849894 -0.829736
42.800000 -0.850414 -0.829736
42.850000 -0.850416 -0.829736
42.900000 -0.849907 -0.829736
42.950000 -0.848905 -0.829736
43.000000 -0.847439 -0.829736
43.050000 -0.845550 -0.829736
43.100000 -0.843291 -0.829736
43.150000 -0.840720 -0.829737
43.200000 -0.837905 -0.829737
43.250000 -0.834918 -0.829737
43.300000 -0.831835 -0.829737
43.350000 -0.828734 -0.829737
43.400000 -0.825690 -0.829737
43.450000 -0.822779 -0.829737
43.500000 -0.820071 -0.829737
43.550000 -0.817631 -0.829737
43.600000 -0.815517 -0.829737
43.650000 -0.813778 -0.829738
43.700000 -0.812452 -0.829738
43.750000 -0.811568 -0.829738
43.800000 -0.811143 -0.829738
43.850000 -0.811183 -0.829738
43.900000 -0.811681 -0.829738
43.950000 -0.812620 -0.829738
44.000000 -0.813974 -0.829738
44.050000 -0.815702 -0.829738
44.100000 -0.817760 -0.829738
44.150000 -0.820091 -0.829738
44.200000 -0.822637 -0.829738
44.250000 -0.825331 -0.829738
44.300000 -0.828105 -0.829739
44.350000 -0.830890 -0.829739
44.400000 -0.833616 -0.829739
44.450000 -0.836217 -0.829739
44.500000 -0.838631 -0.829739
44.550000 -0.840798 -0.829739
44.600000 -0.842668 -0.829739
44.650000 -0.844199 -0.829739
44.700000 -0.845355 -0.829739
44.750000 -0.846113 -0.829739
44.800000 -0.846457 -0.829739
44.850000 -0.846384 -0.829739
44.900000 -0.845900 -0.829739
44.950000 -0.845022 -0.829739
45.000000 -0.843774 -0.829739
45.050000 -0.842193 -0.829739
45.100000 -0.840321 -0.829740
45.150000 -0.838206 -0.829740
45.200000 -0.835905 -0.829740
45.250000 -0.833477 -0.829740
45.300000 -0.830981 -0.829740
45.350000 -0.828482 -0.829740
45.400000 -0.826040 -0.829740
45.450000 -0.823717 -0.829740
45.500000 -0.821567 -0.829740
45.550000 -0.819642 -0.829740
45.600000 -0.817988 -0.829740
45.650000 -0.816643 -0.829740
45.700000 -0.815635 -0.829740
45.750000 -0.814988 -0.829740
45.800000 -0.814712 -0.829740
45.850000 -0.814812 -0.829740
45.900000 -0.815279 -0.829740
45.950000 -0.816100 -0.829740
46.000000 -0.817249 -0.829740
46.050000 -0.818695 -0.829740
46.100000 -0.820398 -0.829740
46.150000 -0.822315 -0.829740
46.200000 -0.824394 -0.829740
46.250000 -0.826584 -0.829740
46.300000 -0.828828 -0.829741
46.350000 -0.831071 -0.829741
46.400000 -0.833257 -0.829741
46.450000 -0.835333 -0.829741
46.500000 -0.837248 -0.829741
46.550000 -0.838956 -0.829741
46.600000 -0.840418 -0.829741
46.650000 -0.841601 -0.829741
46.700000 -0.842477 -0.829741
46.750000 -0.843029 -0.829741
46.800000 -0.843246 -0.829741
46.850000 -0.843127 -0.829741
46.900000 -0.842678 -0.829741
46.950000 -0.841913 -0.829741
47.000000 -0.840856 -0.829741
47.050000 -0.839535 -0.829741
47.100000 -0.837985 -0.829741
47.150000 -0.836249 -0.829741
47.200000 -0.834370 -0.829741
47.250000 -0.832396 -0.829741
47.300000 -0.830378 -0.829741
47.350000 -0.828366 -0.829741
47.400000 -0.826409 -0.829741
47.450000 -0.824556 -0.829741
47.500000 -0.822851 -0.829741
47.550000 -0.821335 -0.829741
47.600000 -0.820043 -0.829741
47.650000 -0.819004 -0.829741
47.700000 -0.818243 -0.829741
47.750000 -0.817774 -0.829741
47.800000 -0.817606 -0.829741
47.850000 -0.817741 -0.829741
47.900000 -0.818170 -0.829741
47.950000 -0.818882 -0.829741
48.000000 -0.819854 -0.829741
48.050000 -0.821061 -0.829741
48.100000 -0.822470 -0.829741
48.150000 -0.824043 -0.829741
48.200000 -0.825741 -0.829741
48.250000 -0.827519 -0.829741
48.300000 -0.829333 -0.829741
48.350000 -0.831138 -0.829741
48.400000 -0.832889 -0.829742
48.450000 -0.834544 -0.829742
48.500000 -0.836061 -0.829742
48.550000 -0.837407 -0.829742
48.600000 -0.838548 -0.829742
48.650000 -0.839459 -0.829742
48.700000 -0.840120 -0.829742
48.750000 -0.840517 -0.829742
48.800000 -0.840643 -0.829742
48.850000 -0.840498 -0.829742
48.900000 -0.840089 -0.829742
48.950000 -0.839428 -0.829742
49.000000 -0.838534 -0.829742
49.050000 -0.837432 -0.829742
49.100000 -0.836152 -0.829742
49.150000 -0.834727 -0.829742
49.200000 -0.833194 -0.829742
49.250000 -0.831592 -0.829742
49.300000 -0.829961 -0.829742
49.350000 -0.828343 -0.829742
49.400000 -0.826776 -0.829742
49.450000 -0.825300 -0.829742
49.500000 -0.823949 -0.829742
49.550000 -0.822756 -0.829742
49.600000 -0.821748 -0.829742
49.650000 -0.820950 -0.829742
49.700000 -0.820377 -0.829742
49.750000 -0.820042 -0.829742
49.800000 -0.819951 -0.829742
49.850000 -0.820103 -0.829742
49.900000 -0.820491 -0.829742
49.950000 -0.821105 -0.829742
50.000000 -0.821926 -0.829742
50.050000 -0.822931 -0.829742
50.100000 -0.824094 -0.829742
50.150000 -0.825384 -0.829742
50.200000 -0.826768 -0.829742
50.250000 -0.828211 -0.829742
50.300000 -0.829677 -0.829742
50.350000 -0.831128 -0.829742
50.400000 -0.832530 -0.829742
50.450000 -0.833847 -0.829742
50.500000 -0.835049 -0.829742
50.550000 -0.836106 -0.829742
50.600000 -0.836995 -0.829742
50.650000 -0.837695 -0.829742
50.700000 -0.838191 -0.829742
50.750000 -0.838472 -0.829742
50.800000 -0.838534 -0.829742
50.850000 -0.838378 -0.829742
50.900000 -0.838010 -0.829742
50.950000 -0.837442 -0.829742
51.000000 -0.836689 -0.829742
51.050000 -0.835772 -0.829742
51.100000 -0.834716 -0.829742
51.150000 -0.833548 -0.829742
51.200000 -0.832298 -0.829742
51.250000 -0.830999 -0.829742
51.300000 -0.829682 -0.829742
51.350000 -0.828381 -0.829742
51.400000 -0.827128 -0.829742
51.450000 -0.825952 -0.829742
51.500000 -0.824883 -0.829742
51.550000 -0.823946 -0.829742
51.600000 -0.823162 -0.829742
51.650000 -0.822550 -0.829742
51.700000 -0.822122 -0.829742
51.750000 -0.821887 -0.829742
51.800000 -0.821848 -0.829742
51.850000 -0.822006 -0.829742
51.900000 -0.822353 -0.829742
51.950000 -0.822880 -0.829742
52.000000 -0.823570 -0.829742
52.050000 -0.824406 -0.829742
52.100000 -0.825365 -0.829742
52.150000 -0.826422 -0.829742
52.200000 -0.827550 -0.829742
52.250000 -0.828720 -0.829742
52.300000 -0.829902 -0.829742
52.350000 -0.831068 -0.829742
52.400000 -0.832189 -0.829742
52.450000 -0.833237 -0.829742
52.500000 -0.834188 -0.829742
52.550000 -0.835018 -0.829742
52.600000 -0.835709 -0.829742
52.650000 -0.836245 -0.829742
52.700000 -0.836614 -0.829742
52.750000 -0.836809 -0.829742
52.800000 -0.836828 -0.829742
52.850000 -0.836670 -0.829742
52.900000 -0.836343 -0.829742
52.950000 -0.835857 -0.829742
53.000000 -0.835224 -0.829742
53.050000 -0.834462 -0.829742
53.100000 -0.833592 -0.829742
53.150000 -0.832636 -0.829742
53.200000 -0.831618 -0.829742
53.250000 -0.830565 -0.829742
53.300000 -0.829503 -0.829742
53.350000 -0.828458 -0.829742
53.400000 -0.827456 -0.829742
53.450000 -0.826521 -0.829742
53.500000 -0.825677 -0.829742
53.550000 -0.824941 -0.829742
53.600000 -0.824333 -0.829742
53.650000 -0.823864 -0.829742
53.700000 -0.823547 -0.829742
53.750000 -0.823386 -0.829742
53.800000 -0.823384 -0.829742
53.850000 -0.823539 -0.829742
53.900000 -0.823846 -0.829742
53.950000 -0.824296 -0.829742
54.000000 -0.824875 -0.829742
54.050000 -0.825569 -0.829742
54.100000 -0.826359 -0.829742
54.150000 -0.827224 -0.829742
54.200000 -0.828141 -0.829742
54.250000 -0.829089 -0.829742
54.300000 -0.830043 -0.829742
54.350000 -0.830979 -0.829742
54.400000 -0.831874 -0.829742
54.450000 -0.832708 -0.829742
54.500000 -0.833458 -0.829742
54.550000 -0.834109 -0.829742
54.600000 -0.834645 -0.829742
54.650000 -0.835054 -0.829742
54.700000 -0.835327 -0.829742
54.750000 -0.835459 -0.829742
54.800000 -0.835448 -0.829742
54.850000 -0.835296 -0.829742
54.900000 -0.835008 -0.829742
54.950000 -0.834593 -0.829742
55.000000 -0.834062 -0.829742
55.050000 -0.833431 -0.829742
55.100000 -0.832714 -0.829742
55.150000 -0.831932 -0.829742
55.200000 -0.831104 -0.829742
55.250000 -0.830252 -0.829742
55.300000 -0.829395 -0.829742
55.350000 -0.828557 -0.829742
55.400000 -0.827757 -0.829742
55.450000 -0.827014 -0.829742
55.500000 -0.826347 -0.829742
55.550000 -0.825772 -0.829742
55.600000 -0.825300 -0.829742
55.650000 -0.824944 -0.829742
55.700000 -0.824710 -0.829742
55.750000 -0.824603 -0.829742
55.800000 -0.824624 -0.829742
55.850000 -0.824772 -0.829742
55.900000 -0.825041 -0.829742
55.950000 -0.825424 -0.829742
56.000000 -0.825909 -0.829742
56.050000 -0.826484 -0.829742
56.100000 -0.827134 -0.829742
56.150000 -0.827841 -0.829742
56.200000 -0.828587 -0.829742
56.250000 -0.829354 -0.829742
56.300000 -0.830123 -0.829742
56.350000 -0.830874 -0.829742
56.400000 -0.831588 -0.829742
56.450000 -0.832250 -0.829742
56.500000 -0.832842 -0.829742
56.550000 -0.833351 -0.829742
56.600000 -0.833766 -0.829742
56.650000 -0.834077 -0.829742
56.700000 -0.834277 -0.829742
56.750000 -0.834362 -0.829742
56.800000 -0.834333 -0.829742
56.850000 -0.834190 -0.829742
56.900000 -0.833938 -0.829742
56.950000 -0.833586 -0.829742
57.000000 -0.833142 -0.829742
57.050000 -0.832619 -0.829742
57.100000 -0.832030 -0.829742
57.150000 -0.831391 -0.829742
57.200000 -0.830718 -0.829742
57.250000 -0.830028 -0.829742
57.300000 -0.829339 -0.829742
57.350000 -0.828667 -0.829742
57.400000 -0.828028 -0.829742
57.450000 -0.827439 -0.829742
57.500000 -0.826913 -0.829742
57.550000 -0.826463 -0.829742
57.600000 -0.826099 -0.829742
57.650000 -0.825828 -0.829742
57.700000 -0.825658 -0.829742
57.750000 -0.825590 -0.829742
57.800000 -0.825626 -0.829742
57.850000 -0.825763 -0.829742
57.900000 -0.825998 -0.829742
57.950000 -0.826322 -0.829742
58.000000 -0.826728 -0.829742
58.050000 -0.827204 -0.829742
58.100000 -0.827737 -0.829742
58.150000 -0.828314 -0.829742
58.200000 -0.828921 -0.829742
58.250000 -0.829541 -0.829742
58.300000 -0.830160 -0.829742
58.350000 -0.830762 -0.829742
58.400000 -0.831332 -0.829742
58.450000 -0.831857 -0.829742
58.500000 -0.832323 -0.829742
58.550000 -0.832721 -0.829742
58.600000 -0.833041 -0.829742
58.650000 -0.833276 -0.829742
58.700000 -0.833421 -0.829742
58.750000 -0.833473 -0.829742
58.800000 -0.833433 -0.829742
58.850000 -0.833301 -0.829742
58.900000 -0.833083 -0.829742
58.950000 -0.832785 -0.829742
59.000000 -0.832414 -0.829742
59.050000 -0.831982 -0.829742
59.100000 -0.831498 -0.829742
59.150000 -0.830977 -0.829742
59.200000 -0.830430 -0.829742
59.250000 -0.829872 -0.829742
59.300000 -0.829317 -0.829742
59.350000 -0.828779 -0.829742
59.400000 -0.828270 -0.829742
59.450000 -0.827803 -0.829742
59.500000 -0.827389 -0.829742
59.550000 -0.827038 -0.829742
59.600000 -0.826757 -0.829742
59.650000 -0.826553 -0.829742
59.700000 -0.826430 -0.829742
59.750000 -0.826391 -0.829742
59.800000 -0.826435 -0.829742
59.850000 -0.826560 -0.829742
59.900000 -0.826763 -0.829742
59.950000 -0.827037 -0.829742
60.000000 -0.827375 -0.829742
60.050000 -0.827768 -0.829742
60.100000 -0.828206 -0.829742
60.150000 -0.828677 -0.829742
60.200000 -0.829169 -0.829742
60.250000 -0.829671 -0.829742
60.300000 -0.830168 -0.829742
60.350000 -0.830650 -0.829742
60.400000 -0.831104 -0.829742
60.450000 -0.831520 -0.829742
60.500000 -0.831887 -0.829742
60.550000 -0.832198 -0.829742
60.600000 -0.832444 -0.829742
60.650000 -0.832620 -0.829742
60.700000 -0.832724 -0.829742
60.750000 -0.832753 -0.829742
60.800000 -0.832707 -0.829742
60.850000 -0.832588 -0.829742
60.900000 -0.832400 -0.829742
60.950000 -0.832148 -0.829742
61.000000 -0.831839 -0.829742
61.050000 -0.831482 -0.829742
61.100000 -0.831086 -0.829742
61.150000 -0.830660 -0.829742
61.200000 -0.830217 -0.829742
61.250000 -0.829766 -0.829742
61.300000 -0.829320 -0.829742
61.350000 -0.828889 -0.829742
61.400000 -0.828483 -0.829742
61.450000 -0.828114 -0.829742
61.500000 -0.827788 -0.829742
61.550000 -0.827514 -0.829742
61.600000 -0.827299 -0.829742
61.650000 -0.827146 -0.829742
61.700000 -0.827059 -0.829742
61.750000 -0.827039 -0.829742
61.800000 -0.827087 -0.829742
61.850000 -0.827199 -0.829742
61.900000 -0.827373 -0.829742
61.950000 -0.827605 -0.829742
62.000000 -0.827886 -0.829742
62.050000 -0.828210 -0.829742
62.100000 -0.828569 -0.829742
62.150000 -0.828953 -0.829742
62.200000 -0.829353 -0.829742
62.250000 -0.829757 -0.829742
62.300000 -0.830158 -0.829742
62.350000 -0.830543 -0.829742
62.400000 -0.830905 -0.829742
62.450000 -0.831234 -0.829742
62.500000 -0.831522 -0.829742
62.550000 -0.831763 -0.829742
62.600000 -0.831952 -0.829742
62.650000 -0.832084 -0.829742
62.700000 -0.832157 -0.829742
62.750000 -0.832169 -0.829742
62.800000 -0.832121 -0.829742
62.850000 -0.832015 -0.829742
62.900000 -0.831854 -0.829742
62.950000 -0.831642 -0.829742
63.000000 -0.831385 -0.829742
63.050000 -0.831091 -0.829742
63.100000 -0.830766 -0.829742
63.150000 -0.830419 -0.829742
63.200000 -0.830060 -0.829742
63.250000 -0.829696 -0.829742
63.300000 -0.829337 -0.829742
63.350000 -0.828993 -0.829742
63.400000 -0.828670 -0.829742
63.450000 -0.828378 -0.829742
63.500000 -0.828122 -0.829742
63.550000 -0.827909 -0.829742
63.600000 -0.827744 -0.829742
63.650000 -0.827630 -0.829742
63.700000 -0.827570 -0.829742
63.750000 -0.827564 -0.829742
63.800000 -0.827612 -0.829742
63.850000 -0.827712 -0.829742
63.900000 -0.827861 -0.829742
63.950000 -0.828055 -0.829742
64.000000 -0.828289 -0.829742
64.050000 -0.828556 -0.829742
64.100000 -0.828850 -0.829742
64.150000 -0.829163 -0.829742
64.200000 -0.829487 -0.829742
64.250000 -0.829813 -0.829742
64.300000 -0.830135 -0.829742
64.350000 -0.830443 -0.829742
64.400000 -0.830730 -0.829742
64.450000 -0.830990 -0.829742
64.500000 -0.831217 -0.829742
64.550000 -0.831404 -0.829742
64.600000 -0.831548 -0.829742
64.650000 -0.831646 -0.829742
64.700000 -0.831696 -0.829742
64.750000 -0.831697 -0.829742
64.800000 -0.831650 -0.829742
64.850000 -0.831556 -0.829742
64.900000 -0.831418 -0.829742
64.950000 -0.831240 -0.829742
65.000000 -0.831027 -0.829742
65.050000 -0.830785 -0.829742
65.100000 -0.830519 -0.829742
65.150000 -0.830237 -0.829742
65.200000 -0.829946 -0.829742
65.250000 -0.829652 -0.829742
65.300000 -0.829364 -0.829742
65.350000 -0.829089 -0.829742
65.400000 -0.828833 -0.829742
65.450000 -0.828602 -0.829742
65.500000 -0.828401 -0.829742
65.550000 -0.828236 -0.829742
65.600000 -0.828110 -0.829742
65.650000 -0.828026 -0.829742
65.700000 -0.827985 -0.829742
65.750000 -0.827988 -0.829742
65.800000 -0.828034 -0.829742
65.850000 -0.828123 -0.829742
65.900000 -0.828250 -0.829742
65.950000 -0.828413 -0.829742
66.000000 -0.828607 -0.829742
66.050000 -0.828827 -0.829742
66.100000 -0.829067 -0.829742
66.150000 -0.829321 -0.829742
66.200000 -0.829584 -0.829742
66.250000 -0.829847 -0.829742
66.300000 -0.830105 -0.829742
66.350000 -0.830351 -0.829742
66.400000 -0.830579 -0.829742
66.450000 -0.830784 -0.829742
66.500000 -0.830962 -0.829742
66.550000 -0.831107 -0.829742
66.600000 -0.831217 -0.829742
66.650000 -0.831289 -0.829742
66.700000 -0.831322 -0.829742
66.750000 -0.831316 -0.829742
66.800000 -0.831271 -0.829742
66.850000 -0.831188 -0.829742
66.900000 -0.831071 -0.829742
66.950000 -0.830922 -0.829742
67.000000 -0.830746 -0.829742
67.050000 -0.830546 -0.829742
67.100000 -0.830329 -0.829742
67.150000 -0.830099 -0.829742
67.200000 -0.829864 -0.829742
67.250000 -0.829627 -0.829742
67.300000 -0.829396 -0.829742
67.350000 -0.829177 -0.829742
67.400000 -0.828973 -0.829742
67.450000 -0.828791 -0.829742
67.500000 -0.828634 -0.829742
67.550000 -0.828506 -0.829742
67.600000 -0.828410 -0.829742
67.650000 -0.828349 -0.829742
67.700000 -0.828322 -0.829742
67.750000 -0.828331 -0.829742
67.800000 -0.828374 -0.829742
67.850000 -0.828451 -0.829742
67.900000 -0.828560 -0.829742
67.950000 -0.828696 -0.829742
68.000000 -0.828856 -0.829742
68.050000 -0.829037 -0.829742
68.100000 -0.829234 -0.829742
68.150000 -0.829441 -0.829742
68.200000 -0.829653 -0.829742
68.250000 -0.829865 -0.829742
68.300000 -0.830071 -0.829742
68.350000 -0.830268 -0.829742
68.400000 -0.830449 -0.829742
68.450000 -0.830611 -0.829742
68.500000 -0.830750 -0.829742
68.550000 -0.830862 -0.829742
68.600000 -0.830945 -0.829742
68.650000 -0.830998 -0.829742
68.700000 -0.831019 -0.829742
68.750000 -0.831008 -0.829742
68.800000 -0.830966 -0.829742
68.850000 -0.830894 -0.829742
68.900000 -0.830795 -0.829742
68.950000 -0.830670 -0.829742
69.000000 -0.830524 -0.829742
69.050000 -0.830360 -0.829742
69.100000 -0.830183 -0.829742
69.150000 -0.829996 -0.829742
69.200000 -0.829806 -0.829742
69.250000 -0.829615 -0.829742
69.300000 -0.829430 -0.829742
69.350000 -0.829255 -0.829742
69.400000 -0.829094 -0.829742
69.450000 -0.828950 -0.829742
69.500000 -0.828827 -0.829742
69.550000 -0.828729 -0.829742
69.600000 -0.828656 -0.829742
69.650000 -0.828612 -0.829742
69.700000 -0.828595 -0.829742
69.750000 -0.828608 -0.829742
69.800000 -0.828648 -0.829742
69.850000 -0.828715 -0.829742
69.900000 -0.828806 -0.829742
69.950000 -0.828920 -0.829742
70.000000 -0.829053 -0.829742
70.050000 -0.829201 -0.829742
70.100000 -0.829361 -0.829742
70.150000 -0.829529 -0.829742
70.200000 -0.829701 -0.829742
70.250000 -0.829872 -0.829742
70.300000 -0.830037 -0.829742
70.350000 -0.830194 -0.829742
70.400000 -0.830337 -0.829742
70.450000 -0.830465 -0.829742
70.500000 -0.830573 -0.829742
70.550000 -0.830660 -0.829742
70.600000 -0.830722 -0.829742
70.650000 -0.830760 -0.829742
70.700000 -0.830773 -0.829742
70.750000 -0.830759 -0.829742
70.800000 -0.830721 -0.829742
70.850000 -0.830659 -0.829742
70.900000 -0.830575 -0.829742
70.950000 -0.830471 -0.829742
71.000000 -0.830350 -0.829742
71.050000 -0.830216 -0.829742
71.100000 -0.830071 -0.829742
71.150000 -0.829920 -0.829742
71.200000 -0.829766 -0.829742
71.250000 -0.829613 -0.829742
71.300000 -0.829464 -0.829742
71.350000 -0.829325 -0.829742
71.400000 -0.829197 -0.829742
71.450000 -0.829084 -0.829742
71.500000 -0.828988 -0.829742
71.550000 -0.828912 -0.829742
71.600000 -0.828858 -0.829742
71.650000 -0.828826 -0.829742
71.700000 -0.828817 -0.829742
71.750000 -0.828831 -0.829742
71.800000 -0.828867 -0.829742
71.850000 -0.828925 -0.829742
71.900000 -0.829002 -0.829742
71.950000 -0.829097 -0.829742
72.000000 -0.829207 -0.829742
72.050000 -0.829328 -0.829742
72.100000 -0.829459 -0.829742
72.150000 -0.829595 -0.829742
72.200000 -0.829734 -0.829742
72.250000 -0.829871 -0.829742
72.300000 -0.830004 -0.829742
72.350000 -0.830128 -0.829742
72.400000 -0.830242 -0.829742
72.450000 -0.830342 -0.829742
72.500000 -0.830427 -0.829742
72.550000 -0.830493 -0.829742
72.600000 -0.830540 -0.829742
72.650000 -0.830567 -0.829742
72.700000 -0.830573 -0.829742
72.750000 -0.830559 -0.829742
72.800000 -0.830525 -0.829742
72.850000 -0.830471 -0.829742
72.900000 -0.830400 -0.829742
72.950000 -0.830314 -0.829742
73.000000 -0.830214 -0.829742
73.050000 -0.830104 -0.829742
73.100000 -0.829986 -0.829742
73.150000 -0.829863 -0.829742
73.200000 -0.829739 -0.829742
73.250000 -0.829616 -0.829742
73.300000 -0.829497 -0.829742
73.350000 -0.829386 -0.829742
73.400000 -0.829285 -0.829742
73.450000 -0.829196 -0.829742
73.500000 -0.829122 -0.829742
73.550000 -0.829063 -0.829742
73.600000 -0.829023 -0.829742
73.650000 -0.829000 -0.829742
73.700000 -0.828996 -0.829742
73.750000 -0.829011 -0.829742
73.800000 -0.829043 -0.829742
73.850000 -0.829093 -0.829742
73.900000 -0.829158 -0.829742
73.950000 -0.829237 -0.829742
74.000000 -0.829327 -0.829742
74.050000 -0.829427 -0.829742
74.100000 -0.829533 -0.829742
74.150000 -0.829644 -0.829742
74.200000 -0.829756 -0.829742
74.250000 -0.829866 -0.829742
74.300000 -0.829972 -0.829742
74.350000 -0.830071 -0.829742
74.400000 -0.830161 -0.829742
74.450000 -0.830240 -0.829742
74.500000 -0.830305 -0.829742
74.550000 -0.830356 -0.829742
74.600000 -0.830391 -0.829742
74.650000 -0.830410 -0.829742
74.700000 -0.830412 -0.829742
74.750000 -0.830398 -0.829742
74.800000 -0.830367 -0.829742
74.850000 -0.830321 -0.829742
74.900000 -0.830262 -0.829742
74.950000 -0.830190 -0.829742
75.000000 -0.830108 -0.829742
75.050000 -0.830017 -0.829742
75.100000 -0.829921 -0.829742
75.150000 -0.829822 -0.829742
75.200000 -0.829721 -0.829742
75.250000 -0.829623 -0.829742
75.300000 -0.829528 -0.829742
75.350000 -0.829439 -0.829742
75.400000 -0.829359 -0.829742
75.450000 -0.829290 -0.829742
75.500000 -0.829232 -0.829742
75.550000 -0.829187 -0.829742
75.600000 -0.829157 -0.829742
75.650000 -0.829142 -0.829742
75.700000 -0.829141 -0.829742
75.750000 -0.829156 -0.829742
75.800000 -0.829184 -0.829742
75.850000 -0.829227 -0.829742
75.900000 -0.829281 -0.829742
75.950000 -0.829347 -0.829742
76.000000 -0.829421 -0.829742
76.050000 -0.829503 -0.829742
76.100000 -0.829590 -0.829742
76.150000 -0.829679 -0.829742
76.200000 -0.829769 -0.829742
76.250000 -0.829858 -0.829742
76.300000 -0.829943 -0.829742
76.350000 -0.830021 -0.829742
76.400000 -0.830092 -0.829742
76.450000 -0.830154 -0.829742
76.500000 -0.830205 -0.829742
76.550000 -0.830244 -0.829742
76.600000 -0.830270 -0.829742
76.650000 -0.830283 -0.829742
76.700000 -0.830282 -0.829742
76.750000 -0.830268 -0.829742
76.800000 -0.830241 -0.829742
76.850000 -0.830202 -0.829742
76.900000 -0.830152 -0.829742
76.950000 -0.830092 -0.829742
77.000000 -0.830024 -0.829742
77.050000 -0.829951 -0.829742
77.100000 -0.829872 -0.829742
77.150000 -0.829792 -0.829742
77.200000 -0.829711 -0.829742
77.250000 -0.829632 -0.829742
77.300000 -0.829556 -0.829742
77.350000 -0.829486 -0.829742
77.400000 -0.829422 -0.829742
77.450000 -0.829368 -0.829742
77.500000 -0.829323 -0.829742
77.550000 -0.829289 -0.829742
77.600000 -0.829267 -0.829742
77.650000 -0.829257 -0.829742
77.700000 -0.829258 -0.829742
77.750000 -0.829272 -0.829742
77.800000 -0.829297 -0.829742
77.850000 -0.829333 -0.829742
77.900000 -0.829379 -0.829742
77.950000 -0.829433 -0.829742
78.000000 -0.829495 -0.829742
78.050000 -0.829561 -0.829742
78.100000 -0.829632 -0.829742
78.150000 -0.829704 -0.829742
78.200000 -0.829777 -0.829742
78.250000 -0.829848 -0.829742
78.300000 -0.829916 -0.829742
78.350000 -0.829978 -0.829742
78.400000 -0.830034 -0.829742
78.450000 -0.830083 -0.829742
78.500000 -0.830122 -0.829742
78.550000 -0.830152 -0.829742
78.600000 -0.830171 -0.829742
78.650000 -0.830179 -0.829742
78.700000 -0.830176 -0.829742
78.750000 -0.830163 -0.829742
78.800000 -0.830139 -0.829742
78.850000 -0.830106 -0.829742
78.900000 -0.830064 -0.829742
78.950000 -0.830015 -0.829742
79.000000 -0.829960 -0.829742
79.050000 -0.829899 -0.829742
79.100000 -0.829836 -0.829742
79.150000 -0.829770 -0.829742
79.200000 -0.829705 -0.829742
79.250000 -0.829642 -0.829742
79.300000 -0.829581 -0.829742
79.350000 -0.829526 -0.829742
79.400000 -0.829476 -0.829742
79.450000 -0.829433 -0.829742
79.500000 -0.829398 -0.829742
79.550000 -0.829373 -0.829742
79.600000 -0.829356 -0.829742
79.650000 -0.829350 -0.829742
79.700000 -0.829353 -0.829742
79.750000 -0.829366 -0.829742
79.800000 -0.829388 -0.829742
79.850000 -0.829418 -0.829742
79.900000 -0.829457 -0.829742
79.950000 -0.829502 -0.829742
80.000000 -0.829552 -0.829742
80.050000 -0.829606 -0.829742
80.100000 -0.829664 -0.829742
80.150000 -0.829722 -0.829742
80.200000 -0.829781 -0.829742
80.250000 -0.829838 -0.829742
80.300000 -0.829892 -0.829742
80.350000 -0.829941 -0.829742
80.400000 -0.829986 -0.829742
80.450000 -0.830023 -0.829742
80.500000 -0.830054 -0.829742
80.550000 -0.830076 -0.829742
80.600000 -0.830090 -0.829742
80.650000 -0.830095 -0.829742
80.700000 -0.830091 -0.829742
80.750000 -0.830079 -0.829742
80.800000 -0.830059 -0.829742
80.850000 -0.830030 -0.829742
80.900000 -0.829996 -0.829742
80.950000 -0.829955 -0.829742
81.000000 -0.829909 -0.829742
81.050000 -0.829860 -0.829742
81.100000 -0.829808 -0.829742
81.150000 -0.829756 -0.829742
81.200000 -0.829703 -0.829742
81.250000 -0.829652 -0.829742
81.300000 -0.829604 -0.829742
81.350000 -0.829560 -0.829742
81.400000 -0.829520 -0.829742
81.450000 -0.829487 -0.829742
81.500000 -0.829461 -0.829742
81.550000 -0.829441 -0.829742
81.600000 -0.829429 -0.829742
81.650000 -0.829426 -0.829742
81.700000 -0.829430 -0.829742
81.750000 -0.829441 -0.829742
81.800000 -0.829460 -0.829742
81.850000 -0.829486 -0.829742
81.900000 -0.829518 -0.829742
81.950000 -0.829555 -0.829742
82.000000 -0.829596 -0.829742
82.050000 -0.829641 -0.829742
82.100000 -0.829687 -0.829742
82.150000 -0.829735 -0.829742
82.200000 -0.829782 -0.829742
82.250000 -0.829827 -0.829742
82.300000 -0.829870 -0.829742
82.350000 -0.829910 -0.829742
82.400000 -0.829945 -0.829742
82.450000 -0.829974 -0.829742
82.500000 -0.829997 -0.829742
82.550000 -0.830014 -0.829742
82.600000 -0.830024 -0.829742
82.650000 -0.830027 -0.829742
82.700000 -0.830023 -0.829742
82.750000 -0.830012 -0.829742
82.800000 -0.829994 -0.829742
82.850000 -0.829970 -0.829742
82.900000 -0.829941 -0.829742
82.950000 -0.829907 -0.829742
83.000000 -0.829870 -0.829742
83.050000 -0.829830 -0.829742
83.100000 -0.829788 -0.829742
83.150000 -0.829745 -0.829742
83.200000 -0.829703 -0.829742
83.250000 -0.829662 -0.829742
83.300000 -0.829624 -0.829742
83.350000 -0.829589 -0.829742
83.400000 -0.829558 -0.829742
83.450000 -0.829532 -0.829742
83.500000 -0.829512 -0.829742
83.550000 -0.829497 -0.829742
83.600000 -0.829489 -0.829742
83.650000 -0.829487 -0.829742
83.700000 -0.829491 -0.829742
83.750000 -0.829502 -0.829742
83.800000 -0.829518 -0.829742
83.850000 -0.829540 -0.829742
83.900000 -0.829566 -0.829742
83.950000 -0.829597 -0.829742
84.000000 -0.829631 -0.829742
84.050000 -0.829667 -0.829742
84.100000 -0.829705 -0.829742
84.150000 -0.829743 -0.829742
84.200000 -0.829781 -0.829742
84.250000 -0.829817 -0.829742
84.300000 -0.829852 -0.829742
84.350000 -0.829883 -0.829742
84.400000 -0.829910 -0.829742
84.450000 -0.829933 -0.829742
84.500000 -0.829951 -0.829742
84.550000 -0.829964 -0.829742
84.600000 -0.829971 -0.829742
84.650000 -0.829972 -0.829742
84.700000 -0.829967 -0.829742
84.750000 -0.829957 -0.829742
84.800000 -0.829942 -0.829742
84.850000 -0.829922 -0.829742
84.900000 -0.829898 -0.829742
84.950000 -0.829870 -0.829742
85.000000 -0.829840 -0.829742
85.050000 -0.829807 -0.829742
85.100000 -0.829773 -0.829742
85.150000 -0.829739 -0.829742
85.200000 -0.829705 -0.829742
85.250000 -0.829672 -0.829742
85.300000 -0.829641 -0.829742
85.350000 -0.829614 -0.829742
85.400000 -0.829590 -0.829742
85.450000 -0.829569 -0.829742
85.500000 -0.829554 -0.829742
85.550000 -0.829543 -0.829742
85.600000 -0.829537 -0.829742
85.650000 -0.829536 -0.829742
85.700000 -0.829541 -0.829742
85.750000 -0.829550 -0.829742
85.800000 -0.829564 -0.829742
85.850000 -0.829583 -0.829742
85.900000 -0.829605 -0.829742
85.950000 -0.829630 -0.829742
86.000000 -0.829658 -0.829742
86.050000 -0.829687 -0.829742
86.100000 -0.829718 -0.829742
86.150000 -0.829749 -0.829742
86.200000 -0.829779 -0.829742
86.250000 -0.829808 -0.829742
86.300000 -0.829835 -0.829742
86.350000 -0.829860 -0.829742
86.400000 -0.829881 -0.829742
86.450000 -0.829899 -0.829742
86.500000 -0.829913 -0.829742
86.550000 -0.829922 -0.829742
86.600000 -0.829927 -0.829742
86.650000 -0.829927 -0.829742
86.700000 -0.829923 -0.829742
86.750000 -0.829914 -0.829742
86.800000 -0.829901 -0.829742
86.850000 -0.829884 -0.829742
86.900000 -0.829864 -0.829742
86.950000 -0.829841 -0.829742
87.000000 -0.829816 -0.829742
87.050000 -0.829790 -0.829742
87.100000 -0.829762 -0.829742
87.150000 -0.829734 -0.829742
87.200000 -0.829707 -0.829742
87.250000 -0.829681 -0.829742
87.300000 -0.829657 -0.829742
87.350000 -0.829635 -0.829742
87.400000 -0.829616 -0.829742
87.450000 -0.829600 -0.829742
87.500000 -0.829588 -0.829742
87.550000 -0.829580 -0.829742
87.600000 -0.829576 -0.829742
87.650000 -0.829576 -0.829742
87.700000 -0.829581 -0.829742
87.750000 -0.829589 -0.829742
87.800000 -0.829601 -0.829742
87.850000 -0.829616 -0.829742
87.900000 -0.829635 -0.829742
87.950000 -0.829655 -0.829742
88.000000 -0.829678 -0.829742
88.050000 -0.829702 -0.829742
88.100000 -0.829727 -0.829742
88.150000 -0.829752 -0.829742
88.200000 -0.829776 -0.829742
88.250000 -0.829799 -0.829742
88.300000 -0.829821 -0.829742
88.350000 -0.829841 -0.829742
88.400000 -0.829857 -0.829742
88.450000 -0.829871 -0.829742
88.500000 -0.829882 -0.829742
88.550000 -0.829888 -0.829742
88.600000 -0.829892 -0.829742
88.650000 -0.829891 -0.829742
88.700000 -0.829887 -0.829742
88.750000 -0.829879 -0.829742
88.800000 -0.829868 -0.829742
88.850000 -0.829854 -0.829742
88.900000 -0.829837 -0.829742
88.950000 -0.829819 -0.829742
89.000000 -0.829798 -0.829742
89.050000 -0.829776 -0.829742
89.100000 -0.829754 -0.829742
89.150000 -0.829732 -0.829742
89.200000 -0.829710 -0.829742
89.250000 -0.829689 -0.829742
89.300000 -0.829670 -0.829742
89.350000 -0.829653 -0.829742
89.400000 -0.829638 -0.829742
89.450000 -0.829626 -0.829742
89.500000 -0.829617 -0.829742
89.550000 -0.829611 -0.829742
89.600000 -0.829608 -0.829742
89.650000 -0.829609 -0.829742
89.700000 -0.829613 -0.829742
89.750000 -0.829620 -0.829742
89.800000 -0.829630 -0.829742
89.850000 -0.829643 -0.829742
89.900000 -0.829658 -0.829742
89.950000 -0.829675 -0.829742
90.000000 -0.829694 -0.829742
90.050000 -0.829713 -0.829742
90.100000 -0.829734 -0.829742
90.150000 -0.829754 -0.829742
90.200000 -0.829773 -0.829742
90.250000 -0.829792 -0.829742
90.300000 -0.829809 -0.829742
90.350000 -0.829824 -0.829742
90.400000 -0.829837 -0.829742
90.450000 -0.829848 -0.829742
90.500000 -0.829856 -0.829742
90.550000 -0.829861 -0.829742
90.600000 -0.829863 -0.829742
90.650000 -0.829862 -0.829742
90.700000 -0.829858 -0.829742
90.750000 -0.829851 -0.829742
90.800000 -0.829842 -0.829742
90.850000 -0.829830 -0.829742
90.900000 -0.829816 -0.829742
90.950000 -0.829801 -0.829742
91.000000 -0.829784 -0.829742
91.050000 -0.829767 -0.829742
91.100000 -0.829749 -0.829742
91.150000 -0.829731 -0.829742
91.200000 -0.829713 -0.829742
91.250000 -0.829697 -0.829742
91.300000 -0.829681 -0.829742
91.350000 -0.829668 -0.829742
91.400000 -0.829656 -0.829742
91.450000 -0.829647 -0.829742
91.500000 -0.829640 -0.829742
91.550000 -0.829636 -0.829742
91.600000 -0.829634 -0.829742
91.650000 -0.829635 -0.829742
91.700000 -0.829639 -0.829742
91.750000 -0.829645 -0.829742
91.800000 -0.829654 -0.829742
91.850000 -0.829664 -0.829742
91.900000 -0.829677 -0.829742
91.950000 -0.829691 -0.829742
92.000000 -0.829706 -0.829742
92.050000 -0.829722 -0.829742
92.100000 -0.829738 -0.829742
92.150000 -0.829754 -0.829742
92.200000 -0.829770 -0.829742
92.250000 -0.829785 -0.829742
92.300000 -0.829798 -0.829742
92.350000 -0.829810 -0.829742
92.400000 -0.829821 -0.829742
92.450000 -0.829829 -0.829742
92.500000 -0.829835 -0.829742
92.550000 -0.829839 -0.829742
92.600000 -0.829840 -0.829742
92.650000 -0.829839 -0.829742
92.700000 -0.829835 -0.829742
92.750000 -0.829829 -0.829742
92.800000 -0.829821 -0.829742
92.850000 -0.829811 -0.829742
92.900000 -0.829800 -0.829742
92.950000 -0.829787 -0.829742
93.000000 -0.829774 -0.829742
93.050000 -0.829759 -0.829742
93.100000 -0.829745 -0.829742
93.150000 -0.829730 -0.829742
93.200000 -0.829716 -0.829742
93.250000 -0.829703 -0.829742
93.300000 -0.829691 -0.829742
93.350000 -0.829680 -0.829742
93.400000 -0.829671 -0.829742
93.450000 -0.829664 -0.829742
93.500000 -0.829659 -0.829742
93.550000 -0.829656 -0.829742
93.600000 -0.829655 -0.829742
93.650000 -0.829656 -0.829742
93.700000 -0.829660 -0.829742
93.750000 -0.829665 -0.829742
93.800000 -0.829672 -0.829742
93.850000 -0.829681 -0.829742
93.900000 -0.829692 -0.829742
93.950000 -0.829703 -0.829742
94.000000 -0.829715 -0.829742
94.050000 -0.829728 -0.829742
94.100000 -0.829741 -0.829742
94.150000 -0.829754 -0.829742
94.200000 -0.829767 -0.829742
94.250000 -0.829779 -0.829742
94.300000 -0.829789 -0.829742
94.350000 -0.829799 -0.829742
94.400000 -0.829807 -0.829742
94.450000 -0.829813 -0.829742
94.500000 -0.829818 -0.829742
94.550000 -0.829820 -0.829742
94.600000 -0.829821 -0.829742
94.650000 -0.829820 -0.829742
94.700000 -0.829816 -0.829742
94.750000 -0.829811 -0.829742
94.800000 -0.829805 -0.829742
94.850000 -0.829797 -0.829742
94.900000 -0.829787 -0.829742
94.950000 -0.829777 -0.829742
95.000000 -0.829766 -0.829742
95.050000 -0.829754 -0.829742
95.100000 -0.829742 -0.829742
95.150000 -0.829731 -0.829742
95.200000 -0.829719 -0.829742
95.250000 -0.829709 -0.829742
95.300000 -0.829699 -0.829742
95.350000 -0.829691 -0.829742
95.400000 -0.829684 -0.829742
95.450000 -0.829678 -0.829742
95.500000 -0.829674 -0.829742
95.550000 -0.829672 -0.829742
95.600000 -0.829672 -0.829742
95.650000 -0.829673 -0.829742
95.700000 -0.829676 -0.829742
95.750000 -0.829681 -0.829742
95.800000 -0.829687 -0.829742
95.850000 -0.829694 -0.829742
95.900000 -0.829703 -0.829742
95.950000 -0.829712 -0.829742
96.000000 -0.829722 -0.829742
96.050000 -0.829733 -0.829742
96.100000 -0.829743 -0.829742
96.150000 -0.829754 -0.829742
96.200000 -0.829764 -0.829742
96.250000 -0.829773 -0.829742
96.300000 -0.829782 -0.829742
96.350000 -0.829789 -0.829742
96.400000 -0.829795 -0.829742
96.450000 -0.829800 -0.829742
96.500000 -0.829804 -0.829742
96.550000 -0.829805 -0.829742
96.600000 -0.829806 -0.829742
96.650000 -0.829804 -0.829742
96.700000 -0.829801 -0.829742
96.750000 -0.829797 -0.829742
96.800000 -0.829792 -0.829742
96.850000 -0.829785 -0.829742
96.900000 -0.829777 -0.829742
96.950000 -0.829768 -0.829742
97.000000 -0.829759 -0.829742
97.050000 -0.829750 -0.829742
97.100000 -0.829741 -0.829742
97.150000 -0.829731 -0.829742
97.200000 -0.829722 -0.829742
97.250000 -0.829714 -0.829742
97.300000 -0.829706 -0.829742
97.350000 -0.829700 -0.829742
97.400000 -0.829694 -0.829742
97.450000 -0.829690 -0.829742
97.500000 -0.829687 -0.829742
97.550000 -0.829686 -0.829742
97.600000 -0.829686 -0.829742
97.650000 -0.829687 -0.829742
97.700000 -0.829690 -0.829742
97.750000 -0.829694 -0.829742
97.800000 -0.829699 -0.829742
97.850000 -0.829705 -0.829742
97.900000 -0.829712 -0.829742
97.950000 -0.829720 -0.829742
98.000000 -0.829728 -0.829742
98.050000 -0.829736 -0.829742
98.100000 -0.829745 -0.829742
98.150000 -0.829753 -0.829742
98.200000 -0.829761 -0.829742
98.250000 -0.829769 -0.829742
98.300000 -0.829775 -0.829742
98.350000 -0.829781 -0.829742
98.400000 -0.829786 -0.829742
98.450000 -0.829790 -0.829742
98.500000 -0.829792 -0.829742
98.550000 -0.829793 -0.829742
98.600000 -0.829793 -0.829742
98.650000 -0.829792 -0.829742
98.700000 -0.829789 -0.829742
98.750000 -0.829786 -0.829742
98.800000 -0.829781 -0.829742
98.850000 -0.829775 -0.829742
98.900000 -0.829769 -0.829742
98.950000 -0.829762 -0.829742
99.000000 -0.829755 -0.829742
99.050000 -0.829747 -0.829742
99.100000 -0.829739 -0.829742
99.150000 -0.829732 -0.829742
99.200000 -0.829725 -0.829742
99.250000 -0.829718 -0.829742
99.300000 -0.829712 -0.829742
99.350000 -0.829707 -0.829742
99.400000 -0.829703 -0.829742
99.450000 -0.829700 -0.829742
99.500000 -0.829697 -0.829742
99.550000 -0.829696 -0.829742
99.600000 -0.829697 -0.829742
99.650000 -0.829698 -0.829742
99.700000 -0.829700 -0.829742
99.750000 -0.829704 -0.829742
99.800000 -0.829708 -0.829742
99.850000 -0.829713 -0.829742
99.900000 -0.829719 -0.829742
99.950000 -0.829725 -0.829742
100.000000 -0.829732 -0.829742
100.050000 -0.829739 -0.829742
100.100000 -0.829746 -0.829742
100.150000 -0.829752 -0.829742
100.200000 -0.829759 -0.829742
100.250000 -0.829765 -0.829742
100.300000 -0.829770 -0.829742
100.350000 -0.829774 -0.829742
100.400000 -0.829778 -0.829742
100.450000 -0.829781 -0.829742
100.500000 -0.829783 -0.829742
100.550000 -0.829784 -0.829742
100.600000 -0.829783 -0.829742
100.650000 -0.829782 -0.829742
100.700000 -0.829780 -0.829742
100.750000 -0.829777 -0.829742
100.800000 -0.829773 -0.829742
100.850000 -0.829768 -0.829742
100.900000 -0.829763 -0.829742
100.950000 -0.829757 -0.829742
101.000000 -0.829751 -0.829742
101.050000 -0.829745 -0.829742
101.100000 -0.829739 -0.829742
101.150000 -0.829733 -0.829742
101.200000 -0.829727 -0.829742
101.250000 -0.829722 -0.829742
101.300000 -0.829717 -0.829742
101.350000 -0.829713 -0.829742
101.400000 -0.829710 -0.829742
101.450000 -0.829707 -0.829742
101.500000 -0.829706 -0.829742
101.550000 -0.829705 -0.829742
101.600000 -0.829706 -0.829742
101.650000 -0.829707 -0.829742
101.700000 -0.829709 -0.829742
101.750000 -0.829712 -0.829742
101.800000 -0.829715 -0.829742
101.850000 -0.829720 -0.829742
101.900000 -0.829724 -0.829742
101.950000 -0.829729 -0.829742
102.000000 -0.829735 -0.829742
102.050000 -0.829740 -0.829742
102.100000 -0.829746 -0.829742
102.150000 -0.829751 -0.829742
102.200000 -0.829756 -0.829742
102.250000 -0.829761 -0.829742
102.300000 -0.829765 -0.829742
102.350000 -0.829769 -0.829742
102.400000 -0.829772 -0.829742
102.450000 -0.829774 -0.829742
102.500000 -0.829775 -0.829742
102.550000 -0.829776 -0.829742
102.600000 -0.829775 -0.829742
102.650000 -0.829774 -0.829742
102.700000 -0.829772 -0.829742
102.750000 -0.829770 -0.829742
102.800000 -0.829766 -0.829742
102.850000 -0.829762 -0.829742
102.900000 -0.829758 -0.829742
102.950000 -0.829754 -0.829742
103.000000 -0.829749 -0.829742
103.050000 -0.829744 -0.829742
103.100000 -0.829739 -0.829742
103.150000 -0.829734 -0.829742
103.200000 -0.829729 -0.829742
103.250000 -0.829725 -0.829742
103.300000 -0.829721 -0.829742
103.350000 -0.829718 -0.829742
103.400000 -0.829716 -0.829742
103.450000 -0.829714 -0.829742
103.500000 -0.829713 -0.829742
103.550000 -0.829712 -0.829742
103.600000 -0.829713 -0.829742
103.650000 -0.829714 -0.829742
103.700000 -0.829716 -0.829742
103.750000 -0.829718 -0.829742
103.800000 -0.829721 -0.829742
103.850000 -0.829725 -0.829742
103.900000 -0.829728 -0.829742
103.950000 -0.829733 -0.829742
104.000000 -0.829737 -0.829742
104.050000 -0.829742 -0.829742
104.100000 -0.829746 -0.829742
104.150000 -0.829750 -0.829742
104.200000 -0.829754 -0.829742
104.250000 -0.829758 -0.829742
104.300000 -0.829761 -0.829742
104.350000 -0.829764 -0.829742
104.400000 -0.829766 -0.829742
104.450000 -0.829768 -0.829742
104.500000 -0.829769 -0.829742
104.550000 -0.829769 -0.829742
104.600000 -0.829769 -0.829742
104.650000 -0.829768 -0.829742
104.700000 -0.829766 -0.829742
104.750000 -0.829764 -0.829742
104.800000 -0.829761 -0.829742
104.850000 -0.829758 -0.829742
104.900000 -0.829754 -0.829742
104.950000 -0.829751 -0.829742
105.000000 -0.829747 -0.829742
105.050000 -0.829743 -0.829742
105.100000 -0.829739 -0.829742
105.150000 -0.829735 -0.829742
105.200000 -0.829731 -0.829742
105.250000 -0.829728 -0.829742
105.300000 -0.829725 -0.829742
105.350000 -0.829723 -0.829742
105.400000 -0.829721 -0.829742
105.450000 -0.829719 -0.829742
105.500000 -0.829718 -0.829742
105.550000 -0.829718 -0.829742
105.600000 -0.829719 -0.829742
105.650000 -0.829720 -0.829742
105.700000 -0.829721 -0.829742
105.750000 -0.829723 -0.829742
105.800000 -0.829726 -0.829742
105.850000 -0.829729 -0.829742
105.900000 -0.829732 -0.829742
105.950000 -0.829735 -0.829742
106.000000 -0.829739 -0.829742
106.050000 -0.829742 -0.829742
106.100000 -0.829746 -0.829742
106.150000 -0.829749 -0.829742
106.200000 -0.829753 -0.829742
106.250000 -0.829756 -0.829742
106.300000 -0.829758 -0.829742
106.350000 -0.829760 -0.829742
106.400000 -0.829762 -0.829742
106.450000 -0.829763 -0.829742
106.500000 -0.829764 -0.829742
106.550000 -0.829764 -0.829742
106.600000 -0.829764 -0.829742
106.650000 -0.829763 -0.829742
106.700000 -0.829761 -0.829742
106.750000 -0.829759 -0.829742
106.800000 -0.829757 -0.829742
106.850000 -0.829754 -0.829742
106.900000 -0.829752 -0.829742
106.950000 -0.829748 -0.829742
107.000000 -0.829745 -0.829742
107.050000 -0.829742 -0.829742
107.100000 -0.829739 -0.829742
107.150000 -0.829736 -0.829742
107.200000 -0.829733 -0.829742
107.250000 -0.829730 -0.829742
107.300000 -0.829728 -0.829742
107.350000 -0.829726 -0.829742
107.400000 -0.829725 -0.829742
107.450000 -0.829724 -0.829742
107.500000 -0.829723 -0.829742
107.550000 -0.829723 -0.829742
107.600000 -0.829723 -0.829742
107.650000 -0.829724 -0.829742
107.700000 -0.829725 -0.829742
107.750000 -0.829727 -0.829742
107.800000 -0.829729 -0.829742
107.850000 -0.829732 -0.829742
107.900000 -0.829734 -0.829742
107.950000 -0.829737 -0.829742
108.000000 -0.829740 -0.829742
108.050000 -0.829743 -0.829742
108.100000 -0.829746 -0.829742
108.150000 -0.829749 -0.829742
108.200000 -0.829751 -0.829742
108.250000 -0.829753 -0.829742
108.300000 -0.829755 -0.829742
108.350000 -0.829757 -0.829742
108.400000 -0.829758 -0.829742
108.450000 -0.829759 -0.829742
108.500000 -0.829760 -0.829742
108.550000 -0.829760 -0.829742
108.600000 -0.829759 -0.829742
108.650000 -0.829759 -0.829742
108.700000 -0.829757 -0.829742
108.750000 -0.829756 -0.829742
108.800000 -0.829754 -0.829742
108.850000 -0.829752 -0.829742
108.900000 -0.829749 -0.829742
108.950000 -0.829747 -0.829742
109.000000 -0.829744 -0.829742
109.050000 -0.829742 -0.829742
109.100000 -0.829739 -0.829742
109.150000 -0.829737 -0.829742
109.200000 -0.829734 -0.829742
109.250000 -0.829732 -0.829742
109.300000 -0.829730 -0.829742
109.350000 -0.829729 -0.829742
109.400000 -0.829728 -0.829742
109.450000 -0.829727 -0.829742
109.500000 -0.829727 -0.829742
109.550000 -0.829727 -0.829742
109.600000 -0.829727 -0.829742
109.650000 -0.829728 -0.829742
109.700000 -0.829729 -0.829742
109.750000 -0.829730 -0.829742
109.800000 -0.829732 -0.829742
109.850000 -0.829734 -0.829742
109.900000 -0.829736 -0.829742
109.950000 -0.829739 -0.829742
110.000000 -0.829741 -0.829742
110.050000 -0.829743 -0.829742
110.100000 -0.829746 -0.829742
110.150000 -0.829748 -0.829742
110.200000 -0.829750 -0.829742
110.250000 -0.829752 -0.829742
110.300000 -0.829753 -0.829742
110.350000 -0.829755 -0.829742
110.400000 -0.829755 -0.829742
110.450000 -0.829756 -0.829742
110.500000 -0.829756 -0.829742
110.550000 -0.829756 -0.829742
110.600000 -0.829756 -0.829742
110.650000 -0.829755 -0.829742
110.700000 -0.829754 -0.829742
110.750000 -0.829753 -0.829742
110.800000 -0.829751 -0.829742
110.850000 -0.829750 -0.829742
110.900000 -0.829748 -0.829742
110.950000 -0.829746 -0.829742
111.000000 -0.829743 -0.829742
111.050000 -0.829741 -0.829742
111.100000 -0.829739 -0.829742
111.150000 -0.829737 -0.829742
111.200000 -0.829736 -0.829742
111.250000 -0.829734 -0.829742
111.300000 -0.829732 -0.829742
111.350000 -0.829731 -0.829742
111.400000 -0.829730 -0.829742
111.450000 -0.829730 -0.829742
111.500000 -0.829730 -0.829742
111.550000 -0.829730 -0.829742
111.600000 -0.829730 -0.829742
111.650000 -0.829731 -0.829742
111.700000 -0.829732 -0.829742
111.750000 -0.829733 -0.829742
111.800000 -0.829734 -0.829742
111.850000 -0.829736 -0.829742
111.900000 -0.829738 -0.829742
111.950000 -0.829740 -0.829742
112.000000 -0.829741 -0.829742
112.050000 -0.829743 -0.829742
112.100000 -0.829745 -0.829742
112.150000 -0.829747 -0.829742
112.200000 -0.829749 -0.829742
112.250000 -0.829750 -0.829742
112.300000 -0.829751 -0.829742
112.350000 -0.829752 -0.829742
112.400000 -0.829753 -0.829742
112.450000 -0.829754 -0.829742
112.500000 -0.829754 -0.829742
112.550000 -0.829754 -0.829742
112.600000 -0.829753 -0.829742
112.650000 -0.829753 -0.829742
112.700000 -0.829752 -0.829742
112.750000 -0.829751 -0.829742
112.800000 -0.829749 -0.829742
112.850000 -0.829748 -0.829742
112.900000 -0.829746 -0.829742
112.950000 -0.829745 -0.829742
113.000000 -0.829743 -0.829742
113.050000 -0.829741 -0.829742
113.100000 -0.829740 -0.829742
113.150000 -0.829738 -0.829742
113.200000 -0.829737 -0.829742
113.250000 -0.829735 -0.829742
113.300000 -0.829734 -0.829742
113.350000 -0.829733 -0.829742
113.400000 -0.829733 -0.829742
113.450000 -0.829732 -0.829742
113.500000 -0.829732 -0.829742
113.550000 -0.829732 -0.829742
113.600000 -0.829733 -0.829742
113.650000 -0.829733 -0.829742
113.700000 -0.829734 -0.829742
113.750000 -0.829735 -0.829742
113.800000 -0.829736 -0.829742
113.850000 -0.829737 -0.829742
113.900000 -0.829739 -0.829742
113.950000 -0.829740 -0.829742
114.000000 -0.829742 -0.829742
114.050000 -0.829743 -0.829742
114.100000 -0.829745 -0.829742
114.150000 -0.829746 -0.829742
114.200000 -0.829748 -0.829742
114.250000 -0.829749 -0.829742
114.300000 -0.829750 -0.829742
114.350000 -0.829751 -0.829742
114.400000 -0.829751 -0.829742
114.450000 -0.829751 -0.829742
114.500000 -0.829752 -0.829742
114.550000 -0.829751 -0.829742
114.600000 -0.829751 -0.829742
114.650000 -0.829751 -0.829742
114.700000 -0.829750 -0.829742
114.750000 -0.829749 -0.829742
114.800000 -0.829748 -0.829742
114.850000 -0.829747 -0.829742
114.900000 -0.829745 -0.829742
114.950000 -0.829744 -0.829742
115.000000 -0.829743 -0.829742
115.050000 -0.829741 -0.829742
115.100000 -0.829740 -0.829742
115.150000 -0.829739 -0.829742
115.200000 -0.829738 -0.829742
115.250000 -0.829736 -0.829742
115.300000 -0.829736 -0.829742
115.350000 -0.829735 -0.829742
115.400000 -0.829734 -0.829742
115.450000 -0.829734 -0.829742
115.500000 -0.829734 -0.829742
115.550000 -0.829734 -0.829742
115.600000 -0.829735 -0.829742
115.650000 -0.829735 -0.829742
115.700000 -0.829736 -0.829742
115.750000 -0.829737 -0.829742
115.800000 -0.829738 -0.829742
115.850000 -0.829739 -0.829742
115.900000 -0.829740 -0.829742
115.950000 -0.829741 -0.829742
116.000000 -0.829742 -0.829742
116.050000 -0.829743 -0.829742
116.100000 -0.829745 -0.829742
116.150000 -0.829746 -0.829742
116.200000 -0.829747 -0.829742
116.250000 -0.829748 -0.829742
116.300000 -0.829748 -0.829742
116.350000 -0.829749 -0.829742
116.400000 -0.829749 -0.829742
116.450000 -0.829750 -0.829742
116.500000 -0.829750 -0.829742
116.550000 -0.829750 -0.829742
116.600000 -0.829749 -0.829742
116.650000 -0.829749 -0.829742
116.700000 -0.829748 -0.829742
116.750000 -0.829747 -0.829742
116.800000 -0.829747 -0.829742
116.850000 -0.829746 -0.829742
116.900000 -0.829745 -0.829742
116.950000 -0.829743 -0.829742
117.000000 -0.829742 -0.829742
117.050000 -0.829741 -0.829742
117.100000 -0.829740 -0.829742
117.150000 -0.829739 -0.829742
117.200000 -0.829738 -0.829742
117.250000 -0.829737 -0.829742
117.300000 -0.829737 -0.829742
117.350000 -0.829736 -0.829742
117.400000 -0.829736 -0.829742
117.450000 -0.829736 -0.829742
117.500000 -0.829736 -0.829742
117.550000 -0.829736 -0.829742
117.600000 -0.829736 -0.829742
117.650000 -0.829737 -0.829742
117.700000 -0.829737 -0.829742
117.750000 -0.829738 -0.829742
117.800000 -0.829739 -0.829742
117.850000 -0.829739 -0.829742
117.900000 -0.829740 -0.829742
117.950000 -0.829741 -0.829742
118.000000 -0.829742 -0.829742
118.050000 -0.829743 -0.829742
118.100000 -0.829744 -0.829742
118.150000 -0.829745 -0.829742
118.200000 -0.829746 -0.829742
118.250000 -0.829747 -0.829742
118.300000 -0.829747 -0.829742
118.350000 -0.829748 -0.829742
118.400000 -0.829748 -0.829742
118.450000 -0.829748 -0.829742
118.500000 -0.829748 -0.829742
118.550000 -0.829748 -0.829742
118.600000 -0.829748 -0.829742
118.650000 -0.829748 -0.829742
118.700000 -0.829747 -0.829742
118.750000 -0.829746 -0.829742
118.800000 -0.829746 -0.829742
118.850000 -0.829745 -0.829742
118.900000 -0.829744 -0.829742
118.950000 -0.829743 -0.829742
119.000000 -0.829742 -0.829742
119.050000 -0.829741 -0.829742
119.100000 -0.829740 -0.829742
119.150000 -0.829740 -0.829742
119.200000 -0.829739 -0.829742
119.250000 -0.829738 -0.829742
119.300000 -0.829738 -0.829742
119.350000 -0.829737 -0.829742
119.400000 -0.829737 -0.829742
119.450000 -0.829737 -0.829742
119.500000 -0.829737 -0.829742
119.550000 -0.829737 -0.829742
119.600000 -0.829737 -0.829742
119.650000 -0.829738 -0.829742
119.700000 -0.829738 -0.829742
119.750000 -0.829739 -0.829742
119.800000 -0.829739 -0.829742
119.850000 -0.829740 -0.829742
119.900000 -0.829741 -0.829742
119.950000 -0.829742 -0.829742
120.000000 -0.829743 -0.829742
120.050000 -0.829743 -0.829742
120.100000 -0.829744 -0.829742
120.150000 -0.829745 -0.829742
120.200000 -0.829745 -0.829742
120.250000 -0.829746 -0.829742
120.300000 -0.829746 -0.829742
120.350000 -0.829747 -0.829742
120.400000 -0.829747 -0.829742
120.450000 -0.829747 -0.829742
120.500000 -0.829747 -0.829742
120.550000 -0.829747 -0.829742
120.600000 -0.829747 -0.829742
120.650000 -0.829746 -0.829742
120.700000 -0.829746 -0.829742
120.750000 -0.829745 -0.829742
120.800000 -0.829745 -0.829742
120.850000 -0.829744 -0.829742
120.900000 -0.829744 -0.829742
120.950000 -0.829743 -0.829742
121.000000 -0.829742 -0.829742
121.050000 -0.829741 -0.829742
121.100000 -0.829741 -0.829742
121.150000 -0.829740 -0.829742
121.200000 -0.829740 -0.829742
121.250000 -0.829739 -0.829742
121.300000 -0.829739 -0.829742
121.350000 -0.829738 -0.829742
121.400000 -0.829738 -0.829742
121.450000 -0.829738 -0.829742
121.500000 -0.829738 -0.829742
121.550000 -0.829738 -0.829742
121.600000 -0.829738 -0.829742
121.650000 -0.829739 -0.829742
121.700000 -0.829739 -0.829742
121.750000 -0.829740 -0.829742
121.800000 -0.829740 -0.829742
121.850000 -0.829741 -0.829742
121.900000 -0.829741 -0.829742
121.950000 -0.829742 -0.829742
122.000000 -0.829743 -0.829742
122.050000 -0.829743 -0.829742
122.100000 -0.829744 -0.829742
122.150000 -0.829744 -0.829742
122.200000 -0.829745 -0.829742
122.250000 -0.829745 -0.829742
122.300000 -0.829746 -0.829742
122.350000 -0.829746 -0.829742
122.400000 -0.829746 -0.829742
122.450000 -0.829746 -0.829742
122.500000 -0.829746 -0.829742
122.550000 -0.829746 -0.829742
122.600000 -0.829746 -0.829742
122.650000 -0.829746 -0.829742
122.700000 -0.829745 -0.829742
122.750000 -0.829745 -0.829742
122.800000 -0.829744 -0.829742
122.850000 -0.829744 -0.829742
122.900000 -0.829743 -0.829742
122.950000 -0.829743 -0.829742
123.000000 -0.829742 -0.829742
123.050000 -0.829741 -0.829742
123.100000 -0.829741 -0.829742
123.150000 -0.829740 -0.829742
123.200000 -0.829740 -0.829742
123.250000 -0.829740 -0.829742
123.300000 -0.829739 -0.829742
123.350000 -0.829739 -0.829742
123.400000 -0.829739 -0.829742
123.450000 -0.829739 -0.829742
123.500000 -0.829739 -0.829742
123.550000 -0.829739 -0.829742
123.600000 -0.829739 -0.829742
123.650000 -0.829739 -0.829742
123.700000 -0.829740 -0.829742
123.750000 -0.829740 -0.829742
123.800000 -0.829741 -0.829742
123.850000 -0.829741 -0.829742
123.900000 -0.829742 -0.829742
123.950000 -0.829742 -0.829742
124.000000 -0.829743 -0.829742
124.050000 -0.829743 -0.829742
124.100000 -0.829744 -0.829742
124.150000 -0.829744 -0.829742
124.200000 -0.829745 -0.829742
124.250000 -0.829745 -0.829742
124.300000 -0.829745 -0.829742
124.350000 -0.829745 -0.829742
124.400000 -0.829745 -0.829742
124.450000 -0.829745 -0.829742
124.500000 -0.829745 -0.829742
124.550000 -0.829745 -0.829742
124.600000 -0.829745 -0.829742
124.650000 -0.829745 -0.829742
124.700000 -0.829745 -0.829742
124.750000 -0.829744 -0.829742
124.800000 -0.829744 -0.829742
124.850000 -0.829743 -0.829742
124.900000 -0.829743 -0.829742
124.950000 -0.829742 -0.829742
125.000000 -0.829742 -0.829742
125.050000 -0.829742 -0.829742
125.100000 -0.829741 -0.829742
125.150000 -0.829741 -0.829742
125.200000 -0.829740 -0.829742
125.250000 -0.829740 -0.829742
125.300000 -0.829740 -0.829742
125.350000 -0.829740 -0.829742
125.400000 -0.829740 -0.829742
125.450000 -0.829740 -0.829742
125.500000 -0.829740 -0.829742
125.550000 -0.829740 -0.829742
125.600000 -0.829740 -0.829742
125.650000 -0.829740 -0.829742
125.700000 -0.829740 -0.829742
125.750000 -0.829741 -0.829742
125.800000 -0.829741 -0.829742
125.850000 -0.829741 -0.829742
125.900000 -0.829742 -0.829742
125.950000 -0.829742 -0.829742
126.000000 -0.829743 -0.829742
126.050000 -0.829743 -0.829742
126.100000 -0.829743 -0.829742
126.150000 -0.829744 -0.829742
126.200000 -0.829744 -0.829742
126.250000 -0.829744 -0.829742
126.300000 -0.829745 -0.829742
126.350000 -0.829745 -0.829742
126.400000 -0.829745 -0.829742
126.450000 -0.829745 -0.829742
126.500000 -0.829745 -0.829742
126.550000 -0.829745 -0.829742
126.600000 -0.829745 -0.829742
126.650000 -0.829744 -0.829742
126.700000 -0.829744 -0.829742
126.750000 -0.829744 -0.829742
126.800000 -0.829743 -0.829742
126.850000 -0.829743 -0.829742
126.900000 -0.829743 -0.829742
126.950000 -0.829742 -0.829742
127.000000 -0.829742 -0.829742
127.050000 -0.829742 -0.829742
127.100000 -0.829741 -0.829742
127.150000 -0.829741 -0.829742
127.200000 -0.829741 -0.829742
127.250000 -0.829740 -0.829742
127.300000 -0.829740 -0.829742
127.350000 -0.829740 -0.829742
127.400000 -0.829740 -0.829742
127.450000 -0.829740 -0.829742
127.500000 -0.829740 -0.829742
127.550000 -0.829740 -0.829742
127.600000 -0.829740 -0.829742
127.650000 -0.829741 -0.829742
127.700000 -0.829741 -0.829742
127.750000 -0.829741 -0.829742
127.800000 -0.829741 -0.829742
127.850000 -0.829742 -0.829742
127.900000 -0.829742 -0.829742
127.950000 -0.829742 -0.829742
128.000000 -0.829743 -0.829742
128.050000 -0.829743 -0.829742
128.100000 -0.829743 -0.829742
128.150000 -0.829744 -0.829742
128.200000 -0.829744 -0.829742
128.250000 -0.829744 -0.829742
128.300000 -0.829744 -0.829742
128.350000 -0.829744 -0.829742
128.400000 -0.829744 -0.829742
128.450000 -0.829744 -0.829742
128.500000 -0.829744 -0.829742
128.550000 -0.829744 -0.829742
128.600000 -0.829744 -0.829742
128.650000 -0.829744 -0.829742
128.700000 -0.829744 -0.829742
128.750000 -0.829743 -0.829742
128.800000 -0.829743 -0.829742
128.850000 -0.829743 -0.829742
128.900000 -0.829743 -0.829742
128.950000 -0.829742 -0.829742
129.000000 -0.829742 -0.829742
129.050000 -0.829742 -0.829742
129.100000 -0.829741 -0.829742
129.150000 -0.829741 -0.829742
129.200000 -0.829741 -0.829742
129.250000 -0.829741 -0.829742
129.300000 -0.829741 -0.829742
129.350000 -0.829741 -0.829742
129.400000 -0.829741 -0.829742
129.450000 -0.829741 -0.829742
129.500000 -0.829741 -0.829742
129.550000 -0.829741 -0.829742
129.600000 -0.829741 -0.829742
129.650000 -0.829741 -0.829742
129.700000 -0.829741 -0.829742
129.750000 -0.829741 -0.829742
129.800000 -0.829742 -0.829742
129.850000 -0.829742 -0.829742
129.900000 -0.829742 -0.829742
129.950000 -0.829742 -0.829742
130.000000 -0.829743 -0.829742
130.050000 -0.829743 -0.829742
130.100000 -0.829743 -0.829742
130.150000 -0.829743 -0.829742
130.200000 -0.829744 -0.829742
130.250000 -0.829744 -0.829742
130.300000 -0.829744 -0.829742
130.350000 -0.829744 -0.829742
130.400000 -0.829744 -0.829742
130.450000 -0.829744 -0.829742
130.500000 -0.829744 -0.829742
130.550000 -0.829744 -0.829742
130.600000 -0.829744 -0.829742
130.650000 -0.829744 -0.829742
130.700000 -0.829743 -0.829742
130.750000 -0.829743 -0.829742
130.800000 -0.829743 -0.829742
130.850000 -0.829743 -0.829742
130.900000 -0.829743 -0.829742
130.950000 -0.829742 -0.829742
131.000000 -0.829742 -0.829742
131.050000 -0.829742 -0.829742
131.100000 -0.829742 -0.829742
131.150000 -0.829741 -0.829742
131.200000 -0.829741 -0.829742
131.250000 -0.829741 -0.829742
131.300000 -0.829741 -0.829742
131.350000 -0.829741 -0.829742
131.400000 -0.829741 -0.829742
131.450000 -0.829741 -0.829742
131.500000 -0.829741 -0.829742
131.550000 -0.829741 -0.829742
131.600000 -0.829741 -0.829742
131.650000 -0.829741 -0.829742
131.700000 -0.829741 -0.829742
131.750000 -0.829742 -0.829742
131.800000 -0.829742 -0.829742
131.850000 -0.829742 -0.829742
131.900000 -0.829742 -0.829742
131.950000 -0.829742 -0.829742
132.000000 -0.829743 -0.829742
132.050000 -0.829743 -0.829742
132.100000 -0.829743 -0.829742
132.150000 -0.829743 -0.829742
132.200000 -0.829743 -0.829742
132.250000 -0.829743 -0.829742
132.300000 -0.829744 -0.829742
132.350000 -0.829744 -0.829742
132.400000 -0.829744 -0.829742
132.450000 -0.829744 -0.829742
132.500000 -0.829744 -0.829742
132.550000 -0.829744 -0.829742
132.600000 -0.829743 -0.829742
132.650000 -0.829743 -0.829742
132.700000 -0.829743 -0.829742
132.750000 -0.829743 -0.829742
132.800000 -0.829743 -0.829742
132.850000 -0.829743 -0.829742
132.900000 -0.829742 -0.829742
132.950000 -0.829742 -0.829742
133.000000 -0.829742 -0.829742
133.050000 -0.829742 -0.829742
133.100000 -0.829742 -0.829742
133.150000 -0.829742 -0.829742
133.200000 -0.829741 -0.829742
133.250000 -0.829741 -0.829742
133.300000 -0.829741 -0.829742
133.350000 -0.829741 -0.829742
133.400000 -0.829741 -0.829742
133.450000 -0.829741 -0.829742
133.500000 -0.829741 -0.829742
133.550000 -0.829741 -0.829742
133.600000 -0.829741 -0.829742
133.650000 -0.829741 -0.829742
133.700000 -0.829742 -0.829742
133.750000 -0.829742 -0.829742
133.800000 -0.829742 -0.829742
133.850000 -0.829742 -0.829742
133.900000 -0.829742 -0.829742
133.950000 -0.829742 -0.829742
134.000000 -0.829743 -0.829742
134.050000 -0.829743 -0.829742
134.100000 -0.829743 -0.829742
134.150000 -0.829743 -0.829742
134.200000 -0.829743 -0.829742
134.250000 -0.829743 -0.829742
134.300000 -0.829743 -0.829742
134.350000 -0.829743 -0.829742
134.400000 -0.829743 -0.829742
134.450000 -0.829743 -0.829742
134.500000 -0.829743 -0.829742
134.550000 -0.829743 -0.829742
134.600000 -0.829743 -0.829742
134.650000 -0.829743 -0.829742
134.700000 -0.829743 -0.829742
134.750000 -0.829743 -0.829742
134.800000 -0.829743 -0.829742
134.850000 -0.829743 -0.829742
134.900000 -0.829742 -0.829742
134.950000 -0.829742 -0.829742
135.000000 -0.829742 -0.829742
135.050000 -0.829742 -0.829742
135.100000 -0.829742 -0.829742
135.150000 -0.829742 -0.829742
135.200000 -0.829742 -0.829742
135.250000 -0.829741 -0.829742
135.300000 -0.829741 -0.829742
135.350000 -0.829741 -0.829742
135.400000 -0.829741 -0.829742
135.450000 -0.829741 -0.829742
135.500000 -0.829741 -0.829742
135.550000 -0.829741 -0.829742
135.600000 -0.829742 -0.829742
135.650000 -0.829742 -0.829742
135.700000 -0.829742 -0.829742
135.750000 -0.829742 -0.829742
135.800000 -0.829742 -0.829742
135.850000 -0.829742 -0.829742
135.900000 -0.829742 -0.829742
135.950000 -0.829742 -0.829742
136.000000 -0.829743 -0.829742
136.050000 -0.829743 -0.829742
136.100000 -0.829743 -0.829742
136.150000 -0.829743 -0.829742
136.200000 -0.829743 -0.829742
136.250000 -0.829743 -0.829742
136.300000 -0.829743 -0.829742
136.350000 -0.829743 -0.829742
136.400000 -0.829743 -0.829742
136.450000 -0.829743 -0.829742
136.500000 -0.829743 -0.829742
136.550000 -0.829743 -0.829742
136.600000 -0.829743 -0.829742
136.650000 -0.829743 -0.829742
136.700000 -0.829743 -0.829742
136.750000 -0.829743 -0.829742
136.800000 -0.829743 -0.829742
136.850000 -0.829743 -0.829742
136.900000 -0.829742 -0.829742
136.950000 -0.829742 -0.829742
137.000000 -0.829742 -0.829742
137.050000 -0.829742 -0.829742
137.100000 -0.829742 -0.829742
137.150000 -0.829742 -0.829742
137.200000 -0.829742 -0.829742
137.250000 -0.829742 -0.829742
137.300000 -0.829742 -0.829742
137.350000 -0.829742 -0.829742
137.400000 -0.829742 -0.829742
137.450000 -0.829742 -0.829742
137.500000 -0.829742 -0.829742
137.550000 -0.829742 -0.829742
137.600000 -0.829742 -0.829742
137.650000 -0.829742 -0.829742
137.700000 -0.829742 -0.829742
137.750000 -0.829742 -0.829742
137.800000 -0.829742 -0.829742
137.850000 -0.829742 -0.829742
137.900000 -0.829742 -0.829742
137.950000 -0.829742 -0.829742
138.000000 -0.829743 -0.829742
138.050000 -0.829743 -0.829742
138.100000 -0.829743 -0.829742
138.150000 -0.829743 -0.829742
138.200000 -0.829743 -0.829742
138.250000 -0.829743 -0.829742
138.300000 -0.829743 -0.829742
138.350000 -0.829743 -0.829742
138.400000 -0.829743 -0.829742
138.450000 -0.829743 -0.829742
138.500000 -0.829743 -0.829742
138.550000 -0.829743 -0.829742
138.600000 -0.829743 -0.829742
138.650000 -0.829743 -0.829742
138.700000 -0.829743 -0.829742
138.750000 -0.829743 -0.829742
138.800000 -0.829743 -0.829742
138.850000 -0.829742 -0.829742
138.900000 -0.829742 -0.829742
138.950000 -0.829742 -0.829742
139.000000 -0.829742 -0.829742
139.050000 -0.829742 -0.829742
139.100000 -0.829742 -0.829742
139.150000 -0.829742 -0.829742
139.200000 -0.829742 -0.829742
139.250000 -0.829742 -0.829742
139.300000 -0.829742 -0.829742
139.350000 -0.829742 -0.829742
139.400000 -0.829742 -0.829742
139.450000 -0.829742 -0.829742
139.500000 -0.829742 -0.829742
139.550000 -0.829742 -0.829742
139.600000 -0.829742 -0.829742
139.650000 -0.829742 -0.829742
139.700000 -0.829742 -0.829742
139.750000 -0.829742 -0.829742
139.800000 -0.829742 -0.829742
139.850000 -0.829742 -0.829742
139.900000 -0.829742 -0.829742
139.950000 -0.829742 -0.829742
140.000000 -0.829743 -0.829742
140.050000 -0.829743 -0.829742
140.100000 -0.829743 -0.829742
140.150000 -0.829743 -0.829742
140.200000 -0.829743 -0.829742
140.250000 -0.829743 -0.829742
140.300000 -0.829743 -0.829742
140.350000 -0.829743 -0.829742
140.400000 -0.829743 -0.829742
140.450000 -0.829743 -0.829742
140.500000 -0.829743 -0.829742
140.550000 -0.829743 -0.829742
140.600000 -0.829743 -0.829742
140.650000 -0.829743 -0.829742
140.700000 -0.829743 -0.829742
140.750000 -0.829743 -0.829742
140.800000 -0.829743 -0.829742
140.850000 -0.829742 -0.829742
140.900000 -0.829742 -0.829742
140.950000 -0.829742 -0.829742
141.000000 -0.829742 -0.829742
141.050000 -0.829742 -0.829742
141.100000 -0.829742 -0.829742
141.150000 -0.829742 -0.829742
141.200000 -0.829742 -0.829742
141.250000 -0.829742 -0.829742
141.300000 -0.829742 -0.829742
141.350000 -0.829742 -0.829742
141.400000 -0.829742 -0.829742
141.450000 -0.829742 -0.829742
141.500000 -0.829742 -0.829742
141.550000 -0.829742 -0.829742
141.600000 -0.829742 -0.829742
141.650000 -0.829742 -0.829742
141.700000 -0.829742 -0.829742
141.750000 -0.829742 -0.829742
141.800000 -0.829742 -0.829742
141.850000 -0.829742 -0.829742
141.900000 -0.829742 -0.829742
141.950000 -0.829742 -0.829742
142.000000 -0.829743 -0.829742
142.050000 -0.829743 -0.829742
142.100000 -0.829743 -0.829742
142.150000 -0.829743 -0.829742
142.200000 -0.829743 -0.829742
142.250000 -0.829743 -0.829742
142.300000 -0.829743 -0.829742
142.350000 -0.829743 -0.829742
142.400000 -0.829743 -0.829742
142.450000 -0.829743 -0.829742
142.500000 -0.829743 -0.829742
142.550000 -0.829743 -0.829742
142.600000 -0.829743 -0.829742
142.650000 -0.829743 -0.829742
142.700000 -0.829743 -0.829742
142.750000 -0.829743 -0.829742
142.800000 -0.829742 -0.829742
142.850000 -0.829742 -0.829742
142.900000 -0.829742 -0.829742
142.950000 -0.829742 -0.829742
143.000000 -0.829742 -0.829742
143.050000 -0.829742 -0.829742
143.100000 -0.829742 -0.829742
143.150000 -0.829742 -0.829742
143.200000 -0.829742 -0.829742
143.250000 -0.829742 -0.829742
143.300000 -0.829742 -0.829742
143.350000 -0.829742 -0.829742
143.400000 -0.829742 -0.829742
143.450000 -0.829742 -0.829742
143.500000 -0.829742 -0.829742
143.550000 -0.829742 -0.829742
143.600000 -0.829742 -0.829742
143.650000 -0.829742 -0.829742
143.700000 -0.829742 -0.829742
143.750000 -0.829742 -0.829742
143.800000 -0.829742 -0.829742
143.850000 -0.829742 -0.829742
143.900000 -0.829742 -0.829742
143.950000 -0.829742 -0.829742
144.000000 -0.829742 -0.829742
144.050000 -0.829743 -0.829742
144.100000 -0.829743 -0.829742
144.150000 -0.829743 -0.829742
144.200000 -0.829743 -0.829742
144.250000 -0.829743 -0.829742
144.300000 -0.829743 -0.829742
144.350000 -0.829743 -0.829742
144.400000 -0.829743 -0.829742
144.450000 -0.829743 -0.829742
144.500000 -0.829743 -0.829742
144.550000 -0.829743 -0.829742
144.600000 -0.829743 -0.829742
144.650000 -0.829743 -0.829742
144.700000 -0.829743 -0.829742
144.750000 -0.829742 -0.829742
144.800000 -0.829742 -0.829742
144.850000 -0.829742 -0.829742
144.900000 -0.829742 -0.829742
144.950000 -0.829742 -0.829742
145.000000 -0.829742 -0.829742
145.050000 -0.829742 -0.829742
145.100000 -0.829742 -0.829742
145.150000 -0.829742 -0.829742
145.200000 -0.829742 -0.829742
145.250000 -0.829742 -0.829742
145.300000 -0.829742 -0.829742
145.350000 -0.829742 -0.829742
145.400000 -0.829742 -0.829742
145.450000 -0.829742 -0.829742
145.500000 -0.829742 -0.829742
145.550000 -0.829742 -0.829742
145.600000 -0.829742 -0.829742
145.650000 -0.829742 -0.829742
145.700000 -0.829742 -0.829742
145.750000 -0.829742 -0.829742
145.800000 -0.829742 -0.829742
145.850000 -0.829742 -0.829742
145.900000 -0.829742 -0.829742
145.950000 -0.829742 -0.829742
146.000000 -0.829742 -0.829742
146.050000 -0.829743 -0.829742
146.100000 -0.829743 -0.829742
146.150000 -0.829743 -0.829742
146.200000 -0.829743 -0.829742
146.250000 -0.829743 -0.829742
146.300000 -0.829743 -0.829742
146.350000 -0.829743 -0.829742
146.400000 -0.829743 -0.829742
146.450000 -0.829743 -0.829742
146.500000 -0.829743 -0.829742
146.550000 -0.829743 -0.829742
146.600000 -0.829743 -0.829742
146.650000 -0.829743 -0.829742
146.700000 -0.829742 -0.829742
146.750000 -0.829742 -0.829742
146.800000 -0.829742 -0.829742
146.850000 -0.829742 -0.829742
146.900000 -0.829742 -0.829742
146.950000 -0.829742 -0.829742
147.000000 -0.829742 -0.829742
147.050000 -0.829742 -0.829742
147.100000 -0.829742 -0.829742
147.150000 -0.829742 -0.829742
147.200000 -0.829742 -0.829742
147.250000 -0.829742 -0.829742
147.300000 -0.829742 -0.829742
147.350000 -0.829742 -0.829742
147.400000 -0.829742 -0.829742
147.450000 -0.829742 -0.829742
147.500000 -0.829742 -0.829742
147.550000 -0.829742 -0.829742
147.600000 -0.829742 -0.829742
147.650000 -0.829742 -0.829742
147.700000 -0.829742 -0.829742
147.750000 -0.829742 -0.829742
147.800000 -0.829742 -0.829742
147.850000 -0.829742 -0.829742
147.900000 -0.829742 -0.829742
147.950000 -0.829742 -0.829742
148.000000 -0.829742 -0.829742
148.050000 -0.829742 -0.829742
148.100000 -0.829743 -0.829742
148.150000 -0.829743 -0.829742
148.200000 -0.829743 -0.829742
148.250000 -0.829743 -0.829742
148.300000 -0.829743 -0.829742
148.350000 -0.829743 -0.829742
148.400000 -0.829743 -0.829742
148.450000 -0.829743 -0.829742
148.500000 -0.829743 -0.829742
148.550000 -0.829743 -0.829742
148.600000 -0.829743 -0.829742
148.650000 -0.829742 -0.829742
148.700000 -0.829742 -0.829742
148.750000 -0.829742 -0.829742
148.800000 -0.829742 -0.829742
148.850000 -0.829742 -0.829742
148.900000 -0.829742 -0.829742
148.950000 -0.829742 -0.829742
149.000000 -0.829742 -0.829742
149.050000 -0.829742 -0.829742
149.100000 -0.829742 -0.829742
149.150000 -0.829742 -0.829742
149.200000 -0.829742 -0.829742
149.250000 -0.829742 -0.829742
149.300000 -0.829742 -0.829742
149.350000 -0.829742 -0.829742
149.400000 -0.829742 -0.829742
149.450000 -0.829742 -0.829742
149.500000 -0.829742 -0.829742
149.550000 -0.829742 -0.829742
149.600000 -0.829742 -0.829742
149.650000 -0.829742 -0.829742
149.700000 -0.829742 -0.829742
149.750000 -0.829742 -0.829742
149.800000 -0.829742 -0.829742
149.850000 -0.829742 -0.829742
149.900000 -0.829742 -0.829742
149.950000 -0.829742 -0.829742
150.000000 -0.829742 -0.829742
150.050000 -0.829742 -0.829742
150.100000 -0.829742 -0.829742
150.150000 -0.829743 -0.829742
150.200000 -0.829743 -0.829742
150.250000 -0.829743 -0.829742
150.300000 -0.829743 -0.829742
150.350000 -0.829743 -0.829742
150.400000 -0.829743 -0.829742
150.450000 -0.829743 -0.829742
150.500000 -0.829743 -0.829742
150.550000 -0.829742 -0.829742
150.600000 -0.829742 -0.829742
150.650000 -0.829742 -0.829742
150.700000 -0.829742 -0.829742
150.750000 -0.829742 -0.829742
150.800000 -0.829742 -0.829742
150.850000 -0.829742 -0.829742
150.900000 -0.829742 -0.829742
150.950000 -0.829742 -0.829742
151.000000 -0.829742 -0.829742
151.050000 -0.829742 -0.829742
151.100000 -0.829742 -0.829742
151.150000 -0.829742 -0.829742
151.200000 -0.829742 -0.829742
151.250000 -0.829742 -0.829742
151.300000 -0.829742 -0.829742
151.350000 -0.829742 -0.829742
151.400000 -0.829742 -0.829742
151.450000 -0.829742 -0.829742
151.500000 -0.829742 -0.829742
151.550000 -0.829742 -0.829742
151.600000 -0.829742 -0.829742
151.650000 -0.829742 -0.829742
151.700000 -0.829742 -0.829742
151.750000 -0.829742 -0.829742
151.800000 -0.829742 -0.829742
151.850000 -0.829742 -0.829742
151.900000 -0.829742 -0.829742
151.950000 -0.829742 -0.829742
152.000000 -0.829742 -0.829742
152.050000 -0.829742 -0.829742
152.100000 -0.829742 -0.829742
152.150000 -0.829742 -0.829742
152.200000 -0.829742 -0.829742
152.250000 -0.829742 -0.829742
152.300000 -0.829743 -0.829742
152.350000 -0.829743 -0.829742
152.400000 -0.829742 -0.829742
152.450000 -0.829742 -0.829742
152.500000 -0.829742 -0.829742
152.550000 -0.829742 -0.829742
152.600000 -0.829742 -0.829742
152.650000 -0.829742 -0.829742
152.700000 -0.829742 -0.829742
152.750000 -0.829742 -0.829742
152.800000 -0.829742 -0.829742
152.850000 -0.829742 -0.829742
152.900000 -0.829742 -0.829742
152.950000 -0.829742 -0.829742
153.000000 -0.829742 -0.829742
153.050000 -0.829742 -0.829742
153.100000 -0.829742 -0.829742
153.150000 -0.829742 -0.829742
153.200000 -0.829742 -0.829742
153.250000 -0.829742 -0.829742
153.300000 -0.829742 -0.829742
153.350000 -0.829742 -0.829742
153.400000 -0.829742 -0.829742
153.450000 -0.829742 -0.829742
153.500000 -0.829742 -0.829742
153.550000 -0.829742 -0.829742
153.600000 -0.829742 -0.829742
153.650000 -0.829742 -0.829742
153.700000 -0.829742 -0.829742
153.750000 -0.829742 -0.829742
153.800000 -0.829742 -0.829742
153.850000 -0.829742 -0.829742
153.900000 -0.829742 -0.829742
153.950000 -0.829742 -0.829742
154.000000 -0.829742 -0.829742
154.050000 -0.829742 -0.829742
154.100000 -0.829742 -0.829742
154.150000 -0.829742 -0.829742
154.200000 -0.829742 -0.829742
154.250000 -0.829742 -0.829742
154.300000 -0.829742 -0.829742
154.350000 -0.829742 -0.829742
154.400000 -0.829742 -0.829742
154.450000 -0.829742 -0.829742
154.500000 -0.829742 -0.829742
154.550000 -0.829742 -0.829742
154.600000 -0.829742 -0.829742
154.650000 -0.829742 -0.829742
154.700000 -0.829742 -0.829742
154.750000 -0.829742 -0.829742
154.800000 -0.829742 -0.829742
154.850000 -0.829742 -0.829742
154.900000 -0.829742 -0.829742
154.950000 -0.829742 -0.829742
155.000000 -0.829742 -0.829742
155.050000 -0.829742 -0.829742
155.100000 -0.829742 -0.829742
155.150000 -0.829742 -0.829742
155.200000 -0.829742 -0.829742
155.250000 -0.829742 -0.829742
155.300000 -0.829742 -0.829742
155.350000 -0.829742 -0.829742
155.400000 -0.829742 -0.829742
155.450000 -0.829742 -0.829742
155.500000 -0.829742 -0.829742
155.550000 -0.829742 -0.829742
155.600000 -0.829742 -0.829742
155.650000 -0.829742 -0.829742
155.700000 -0.829742 -0.829742
155.750000 -0.829742 -0.829742
155.800000 -0.829742 -0.829742
155.850000 -0.829742 -0.829742
155.900000 -0.829742 -0.829742
155.950000 -0.829742 -0.829742
156.000000 -0.829742 -0.829742
156.050000 -0.829742 -0.829742
156.100000 -0.829742 -0.829742
156.150000 -0.829742 -0.829742
156.200000 -0.829742 -0.829742
156.250000 -0.829742 -0.829742
156.300000 -0.829742 -0.829742
156.350000 -0.829742 -0.829742
156.400000 -0.829742 -0.829742
156.450000 -0.829742 -0.829742
156.500000 -0.829742 -0.829742
156.550000 -0.829742 -0.829742
156.600000 -0.829742 -0.829742
156.650000 -0.829742 -0.829742
156.700000 -0.829742 -0.829742
156.750000 -0.829742 -0.829742
156.800000 -0.829742 -0.829742
156.850000 -0.829742 -0.829742
156.900000 -0.829742 -0.829742
156.950000 -0.829742 -0.829742
157.000000 -0.829742 -0.829742
157.050000 -0.829742 -0.829742
157.100000 -0.829742 -0.829742
157.150000 -0.829742 -0.829742
157.200000 -0.829742 -0.829742
157.250000 -0.829742 -0.829742
157.300000 -0.829742 -0.829742
157.350000 -0.829742 -0.829742
157.400000 -0.829742 -0.829742
157.450000 -0.829742 -0.829742
157.500000 -0.829742 -0.829742
157.550000 -0.829742 -0.829742
157.600000 -0.829742 -0.829742
157.650000 -0.829742 -0.829742
157.700000 -0.829742 -0.829742
157.750000 -0.829742 -0.829742
157.800000 -0.829742 -0.829742
157.850000 -0.829742 -0.829742
157.900000 -0.829742 -0.829742
157.950000 -0.829742 -0.829742
158.000000 -0.829742 -0.829742
158.050000 -0.829742 -0.829742
158.100000 -0.829742 -0.829742
158.150000 -0.829742 -0.829742
158.200000 -0.829742 -0.829742
158.250000 -0.829742 -0.829742
158.300000 -0.829742 -0.829742
158.350000 -0.829742 -0.829742
158.400000 -0.829742 -0.829742
158.450000 -0.829742 -0.829742
158.500000 -0.829742 -0.829742
158.550000 -0.829742 -0.829742
158.600000 -0.829742 -0.829742
158.650000 -0.829742 -0.829742
158.700000 -0.829742 -0.829742
158.750000 -0.829742 -0.829742
158.800000 -0.829742 -0.829742
158.850000 -0.829742 -0.829742
158.900000 -0.829742 -0.829742
158.950000 -0.829742 -0.829742
159.000000 -0.829742 -0.829742
159.050000 -0.829742 -0.829742
159.100000 -0.829742 -0.829742
159.150000 -0.829742 -0.829742
159.200000 -0.829742 -0.829742
159.250000 -0.829742 -0.829742
159.300000 -0.829742 -0.829742
159.350000 -0.829742 -0.829742
159.400000 -0.829742 -0.829742
159.450000 -0.829742 -0.829742
159.500000 -0.829742 -0.829742
159.550000 -0.829742 -0.829742
159.600000 -0.829742 -0.829742
159.650000 -0.829742 -0.829742
159.700000 -0.829742 -0.829742
159.750000 -0.829742 -0.829742
159.800000 -0.829742 -0.829742
159.850000 -0.829742 -0.829742
159.900000 -0.829742 -0.829742
159.950000 -0.829742 -0.829742
160.000000 -0.829742 -0.829742
160.050000 -0.829742 -0.829742
160.100000 -0.829742 -0.829742
160.150000 -0.829742 -0.829742
160.200000 -0.829742 -0.829742
160.250000 -0.829742 -0.829742
160.300000 -0.829742 -0.829742
160.350000 -0.829742 -0.829742
160.400000 -0.829742 -0.829742
160.450000 -0.829742 -0.829742
160.500000 -0.829742 -0.829742
160.550000 -0.829742 -0.829742
160.600000 -0.829742 -0.829742
160.650000 -0.829742 -0.829742
160.700000 -0.829742 -0.829742
160.750000 -0.829742 -0.829742
160.800000 -0.829742 -0.829742
160.850000 -0.829742 -0.829742
160.900000 -0.829742 -0.829742
160.950000 -0.829742 -0.829742
161.000000 -0.829742 -0.829742
161.050000 -0.829742 -0.829742
161.100000 -0.829742 -0.829742
161.150000 -0.829742 -0.829742
161.200000 -0.829742 -0.829742
161.250000 -0.829742 -0.829742
161.300000 -0.829742 -0.829742
161.350000 -0.829742 -0.829742
161.400000 -0.829742 -0.829742
161.450000 -0.829742 -0.829742
161.500000 -0.829742 -0.829742
161.550000 -0.829742 -0.829742
161.600000 -0.829742 -0.829742
161.650000 -0.829742 -0.829742
161.700000 -0.829742 -0.829742
161.750000 -0.829742 -0.829742
161.800000 -0.829742 -0.829742
161.850000 -0.829742 -0.829742
161.900000 -0.829742 -0.829742
161.950000 -0.829742 -0.829742
162.000000 -0.829742 -0.829742
162.050000 -0.829742 -0.829742
162.100000 -0.829742 -0.829742
162.150000 -0.829742 -0.829742
162.200000 -0.829742 -0.829742
162.250000 -0.829742 -0.829742
162.300000 -0.829742 -0.829742
162.350000 -0.829742 -0.829742
162.400000 -0.829742 -0.829742
162.450000 -0.829742 -0.829742
162.500000 -0.829742 -0.829742
162.550000 -0.829742 -0.829742
162.600000 -0.829742 -0.829742
162.650000 -0.829742 -0.829742
162.700000 -0.829742 -0.829742
162.750000 -0.829742 -0.829742
162.800000 -0.829742 -0.829742
162.850000 -0.829742 -0.829742
162.900000 -0.829742 -0.829742
162.950000 -0.829742 -0.829742
163.000000 -0.829742 -0.829742
163.050000 -0.829742 -0.829742
163.100000 -0.829742 -0.829742
163.150000 -0.829742 -0.829742
163.200000 -0.829742 -0.829742
163.250000 -0.829742 -0.829742
163.300000 -0.829742 -0.829742
163.350000 -0.829742 -0.829742
163.400000 -0.829742 -0.829742
163.450000 -0.829742 -0.829742
163.500000 -0.829742 -0.829742
163.550000 -0.829742 -0.829742
163.600000 -0.829742 -0.829742
163.650000 -0.829742 -0.829742
163.700000 -0.829742 -0.829742
163.750000 -0.829742 -0.829742
163.800000 -0.829742 -0.829742
163.850000 -0.829742 -0.829742
163.900000 -0.829742 -0.829742
163.950000 -0.829742 -0.829742
164.000000 -0.829742 -0.829742
164.050000 -0.829742 -0.829742
164.100000 -0.829742 -0.829742
164.150000 -0.829742 -0.829742
164.200000 -0.829742 -0.829742
164.250000 -0.829742 -0.829742
164.300000 -0.829742 -0.829742
164.350000 -0.829742 -0.829742
164.400000 -0.829742 -0.829742
164.450000 -0.829742 -0.829742
164.500000 -0.829742 -0.829742
164.550000 -0.829742 -0.829742
164.600000 -0.829742 -0.829742
164.650000 -0.829742 -0.829742
164.700000 -0.829742 -0.829742
164.750000 -0.829742 -0.829742
164.800000 -0.829742 -0.829742
164.850000 -0.829742 -0.829742
164.900000 -0.829742 -0.829742
164.950000 -0.829742 -0.829742
165.000000 -0.829742 -0.829742
165.050000 -0.829742 -0.829742
165.100000 -0.829742 -0.829742
165.150000 -0.829742 -0.829742
165.200000 -0.829742 -0.829742
165.250000 -0.829742 -0.829742
165.300000 -0.829742 -0.829742
165.350000 -0.829742 -0.829742
165.400000 -0.829742 -0.829742
165.450000 -0.829742 -0.829742
165.500000 -0.829742 -0.829742
165.550000 -0.829742 -0.829742
165.600000 -0.829742 -0.829742
165.650000 -0.829742 -0.829742
165.700000 -0.829742 -0.829742
165.750000 -0.829742 -0.829742
165.800000 -0.829742 -0.829742
165.850000 -0.829742 -0.829742
165.900000 -0.829742 -0.829742
165.950000 -0.829742 -0.829742
166.000000 -0.829742 -0.829742
166.050000 -0.829742 -0.829742
166.100000 -0.829742 -0.829742
166.150000 -0.829742 -0.829742
166.200000 -0.829742 -0.829742
166.250000 -0.829742 -0.829742
166.300000 -0.829742 -0.829742
166.350000 -0.829742 -0.829742
166.400000 -0.829742 -0.829742
166.450000 -0.829742 -0.829742
166.500000 -0.829742 -0.829742
166.550000 -0.829742 -0.829742
166.600000 -0.829742 -0.829742
166.650000 -0.829742 -0.829742
166.700000 -0.829742 -0.829742
166.750000 -0.829742 -0.829742
166.800000 -0.829742 -0.829742
166.850000 -0.829742 -0.829742
166.900000 -0.829742 -0.829742
166.950000 -0.829742 -0.829742
167.000000 -0.829742 -0.829742
167.050000 -0.829742 -0.829742
167.100000 -0.829742 -0.829742
167.150000 -0.829742 -0.829742
167.200000 -0.829742 -0.829742
167.250000 -0.829742 -0.829742
167.300000 -0.829742 -0.829742
167.350000 -0.829742 -0.829742
167.400000 -0.829742 -0.829742
167.450000 -0.829742 -0.829742
167.500000 -0.829742 -0.829742
167.550000 -0.829742 -0.829742
167.600000 -0.829742 -0.829742
167.650000 -0.829742 -0.829742
167.700000 -0.829742 -0.829742
167.750000 -0.829742 -0.829742
167.800000 -0.829742 -0.829742
167.850000 -0.829742 -0.829742
167.900000 -0.829742 -0.829742
167.950000 -0.829742 -0.829742
168.000000 -0.829742 -0.829742
168.050000 -0.829742 -0.829742
168.100000 -0.829742 -0.829742
168.150000 -0.829742 -0.829742
168.200000 -0.829742 -0.829742
168.250000 -0.829742 -0.829742
168.300000 -0.829742 -0.829742
168.350000 -0.829742 -0.829742
168.400000 -0.829742 -0.829742
168.450000 -0.829742 -0.829742
168.500000 -0.829742 -0.829742
168.550000 -0.829742 -0.829742
168.600000 -0.829742 -0.829742
168.650000 -0.829742 -0.829742
168.700000 -0.829742 -0.829742
168.750000 -0.829742 -0.829742
168.800000 -0.829742 -0.829742
168.850000 -0.829742 -0.829742
168.900000 -0.829742 -0.829742
168.950000 -0.829742 -0.829742
169.000000 -0.829742 -0.829742
169.050000 -0.829742 -0.829742
169.100000 -0.829742 -0.829742
169.150000 -0.829742 -0.829742
169.200000 -0.829742 -0.829742
169.250000 -0.829742 -0.829742
169.300000 -0.829742 -0.829742
169.350000 -0.829742 -0.829742
169.400000 -0.829742 -0.829742
169.450000 -0.829742 -0.829742
169.500000 -0.829742 -0.829742
169.550000 -0.829742 -0.829742
169.600000 -0.829742 -0.829742
169.650000 -0.829742 -0.829742
169.700000 -0.829742 -0.829742
169.750000 -0.829742 -0.829742
169.800000 -0.829742 -0.829742
169.850000 -0.829742 -0.829742
169.900000 -0.829742 -0.829742
169.950000 -0.829742 -0.829742
170.000000 -0.829742 -0.829742
170.050000 -0.829742 -0.829742
170.100000 -0.829742 -0.829742
170.150000 -0.829742 -0.829742
170.200000 -0.829742 -0.829742
170.250000 -0.829742 -0.829742
170.300000 -0.829742 -0.829742
170.350000 -0.829742 -0.829742
170.400000 -0.829742 -0.829742
170.450000 -0.829742 -0.829742
170.500000 -0.829742 -0.829742
170.550000 -0.829742 -0.829742
170.600000 -0.829742 -0.829742
170.650000 -0.829742 -0.829742
170.700000 -0.829742 -0.829742
170.750000 -0.829742 -0.829742
170.800000 -0.829742 -0.829742
170.850000 -0.829742 -0.829742
170.900000 -0.829742 -0.829742
170.950000 -0.829742 -0.829742
171.000000 -0.829742 -0.829742
171.050000 -0.829742 -0.829742
171.100000 -0.829742 -0.829742
171.150000 -0.829742 -0.829742
171.200000 -0.829742 -0.829742
171.250000 -0.829742 -0.829742
171.300000 -0.829742 -0.829742
171.350000 -0.829742 -0.829742
171.400000 -0.829742 -0.829742
171.450000 -0.829742 -0.829742
171.500000 -0.829742 -0.829742
171.550000 -0.829742 -0.829742
171.600000 -0.829742 -0.829742
171.650000 -0.829742 -0.829742
171.700000 -0.829742 -0.829742
171.750000 -0.829742 -0.829742
171.800000 -0.829742 -0.829742
171.850000 -0.829742 -0.829742
171.900000 -0.829742 -0.829742
171.950000 -0.829742 -0.829742
172.000000 -0.829742 -0.829742
172.050000 -0.829742 -0.829742
172.100000 -0.829742 -0.829742
172.150000 -0.829742 -0.829742
172.200000 -0.829742 -0.829742
172.250000 -0.829742 -0.829742
172.300000 -0.829742 -0.829742
172.350000 -0.829742 -0.829742
172.400000 -0.829742 -0.829742
172.450000 -0.829742 -0.829742
172.500000 -0.829742 -0.829742
172.550000 -0.829742 -0.829742
172.600000 -0.829742 -0.829742
172.650000 -0.829742 -0.829742
172.700000 -0.829742 -0.829742
172.750000 -0.829742 -0.829742
172.800000 -0.829742 -0.829742
172.850000 -0.829742 -0.829742
172.900000 -0.829742 -0.829742
172.950000 -0.829742 -0.829742
173.000000 -0.829742 -0.829742
173.050000 -0.829742 -0.829742
173.100000 -0.829742 -0.829742
173.150000 -0.829742 -0.829742
173.200000 -0.829742 -0.829742
173.250000 -0.829742 -0.829742
173.300000 -0.829742 -0.829742
173.350000 -0.829742 -0.829742
173.400000 -0.829742 -0.829742
173.450000 -0.829742 -0.829742
173.500000 -0.829742 -0.829742
173.550000 -0.829742 -0.829742
173.600000 -0.829742 -0.829742
173.650000 -0.829742 -0.829742
173.700000 -0.829742 -0.829742
173.750000 -0.829742 -0.829742
173.800000 -0.829742 -0.829742
173.850000 -0.829742 -0.829742
173.900000 -0.829742 -0.829742
173.950000 -0.829742 -0.829742
174.000000 -0.829742 -0.829742
174.050000 -0.829742 -0.829742
174.100000 -0.829742 -0.829742
174.150000 -0.829742 -0.829742
174.200000 -0.829742 -0.829742
174.250000 -0.829742 -0.829742
174.300000 -0.829742 -0.829742
174.350000 -0.829742 -0.829742
174.400000 -0.829742 -0.829742
174.450000 -0.829742 -0.829742
174.500000 -0.829742 -0.829742
174.550000 -0.829742 -0.829742
174.600000 -0.829742 -0.829742
174.650000 -0.829742 -0.829742
174.700000 -0.829742 -0.829742
174.750000 -0.829742 -0.829742
174.800000 -0.829742 -0.829742
174.850000 -0.829742 -0.829742
174.900000 -0.829742 -0.829742
174.950000 -0.829742 -0.829742
175.000000 -0.829742 -0.829742
175.050000 -0.829742 -0.829742
175.100000 -0.829742 -0.829742
175.150000 -0.829742 -0.829742
175.200000 -0.829742 -0.829742
175.250000 -0.829742 -0.829742
175.300000 -0.829742 -0.829742
175.350000 -0.829742 -0.829742
175.400000 -0.829742 -0.829742
175.450000 -0.829742 -0.829742
175.500000 -0.829742 -0.829742
175.550000 -0.829742 -0.829742
175.600000 -0.829742 -0.829742
175.650000 -0.829742 -0.829742
175.700000 -0.829742 -0.829742
175.750000 -0.829742 -0.829742
175.800000 -0.829742 -0.829742
175.850000 -0.829742 -0.829742
175.900000 -0.829742 -0.829742
175.950000 -0.829742 -0.829742
176.000000 -0.829742 -0.829742
176.050000 -0.829742 -0.829742
176.100000 -0.829742 -0.829742
176.150000 -0.829742 -0.829742
176.200000 -0.829742 -0.829742
176.250000 -0.829742 -0.829742
176.300000 -0.829742 -0.829742
176.350000 -0.829742 -0.829742
176.400000 -0.829742 -0.829742
176.450000 -0.829742 -0.829742
176.500000 -0.829742 -0.829742
176.550000 -0.829742 -0.829742
176.600000 -0.829742 -0.829742
176.650000 -0.829742 -0.829742
176.700000 -0.829742 -0.829742
176.750000 -0.829742 -0.829742
176.800000 -0.829742 -0.829742
176.850000 -0.829742 -0.829742
176.900000 -0.829742 -0.829742
176.950000 -0.829742 -0.829742
177.000000 -0.829742 -0.829742
177.050000 -0.829742 -0.829742
177.100000 -0.829742 -0.829742
177.150000 -0.829742 -0.829742
177.200000 -0.829742 -0.829742
177.250000 -0.829742 -0.829742
177.300000 -0.829742 -0.829742
177.350000 -0.829742 -0.829742
177.400000 -0.829742 -0.829742
177.450000 -0.829742 -0.829742
177.500000 -0.829742 -0.829742
177.550000 -0.829742 -0.829742
177.600000 -0.829742 -0.829742
177.650000 -0.829742 -0.829742
177.700000 -0.829742 -0.829742
177.750000 -0.829742 -0.829742
177.800000 -0.829742 -0.829742
177.850000 -0.829742 -0.829742
177.900000 -0.829742 -0.829742
177.950000 -0.829742 -0.829742
178.000000 -0.829742 -0.829742
178.050000 -0.829742 -0.829742
178.100000 -0.829742 -0.829742
178.150000 -0.829742 -0.829742
178.200000 -0.829742 -0.829742
178.250000 -0.829742 -0.829742
178.300000 -0.829742 -0.829742
178.350000 -0.829742 -0.829742
178.400000 -0.829742 -0.829742
178.450000 -0.829742 -0.829742
178.500000 -0.829742 -0.829742
178.550000 -0.829742 -0.829742
178.600000 -0.829742 -0.829742
178.650000 -0.829742 -0.829742
178.700000 -0.829742 -0.829742
178.750000 -0.829742 -0.829742
178.800000 -0.829742 -0.829742
178.850000 -0.829742 -0.829742
178.900000 -0.829742 -0.829742
178.950000 -0.829742 -0.829742
179.000000 -0.829742 -0.829742
179.050000 -0.829742 -0.829742
179.100000 -0.829742 -0.829742
179.150000 -0.829742 -0.829742
179.200000 -0.829742 -0.829742
179.250000 -0.829742 -0.829742
179.300000 -0.829742 -0.829742
179.350000 -0.829742 -0.829742
179.400000 -0.829742 -0.829742
179.450000 -0.829742 -0.829742
179.500000 -0.829742 -0.829742
179.550000 -0.829742 -0.829742
179.600000 -0.829742 -0.829742
179.650000 -0.829742 -0.829742
179.700000 -0.829742 -0.829742
179.750000 -0.829742 -0.829742
179.800000 -0.829742 -0.829742
179.850000 -0.829742 -0.829742
179.900000 -0.829742 -0.829742
179.950000 -0.829742 -0.829742
180.000000 -0.829742 -0.829742
180.050000 -0.829742 -0.829742
180.100000 -0.829742 -0.829742
180.150000 -0.829742 -0.829742
180.200000 -0.829742 -0.829742
180.250000 -0.829742 -0.829742
180.300000 -0.829742 -0.829742
180.350000 -0.829742 -0.829742
180.400000 -0.829742 -0.829742
180.450000 -0.829742 -0.829742
180.500000 -0.829742 -0.829742
180.550000 -0.829742 -0.829742
180.600000 -0.829742 -0.829742
180.650000 -0.829742 -0.829742
180.700000 -0.829742 -0.829742
180.750000 -0.829742 -0.829742
180.800000 -0.829742 -0.829742
180.850000 -0.829742 -0.829742
180.900000 -0.829742 -0.829742
180.950000 -0.829742 -0.829742
181.000000 -0.829742 -0.829742
181.050000 -0.829742 -0.829742
181.100000 -0.829742 -0.829742
181.150000 -0.829742 -0.829742
181.200000 -0.829742 -0.829742
181.250000 -0.829742 -0.829742
181.300000 -0.829742 -0.829742
181.350000 -0.829742 -0.829742
181.400000 -0.829742 -0.829742
181.450000 -0.829742 -0.829742
181.500000 -0.829742 -0.829742
181.550000 -0.829742 -0.829742
181.600000 -0.829742 -0.829742
181.650000 -0.829742 -0.829742
181.700000 -0.829742 -0.829742
181.750000 -0.829742 -0.829742
181.800000 -0.829742 -0.829742
181.850000 -0.829742 -0.829742
181.900000 -0.829742 -0.829742
181.950000 -0.829742 -0.829742
182.000000 -0.829742 -0.829742
182.050000 -0.829742 -0.829742
182.100000 -0.829742 -0.829742
182.150000 -0.829742 -0.829742
182.200000 -0.829742 -0.829742
182.250000 -0.829742 -0.829742
182.300000 -0.829742 -0.829742
182.350000 -0.829742 -0.829742
182.400000 -0.829742 -0.829742
182.450000 -0.829742 -0.829742
182.500000 -0.829742 -0.829742
182.550000 -0.829742 -0.829742
182.600000 -0.829742 -0.829742
182.650000 -0.829742 -0.829742
182.700000 -0.829742 -0.829742
182.750000 -0.829742 -0.829742
182.800000 -0.829742 -0.829742
182.850000 -0.829742 -0.829742
182.900000 -0.829742 -0.829742
182.950000 -0.829742 -0.829742
183.000000 -0.829742 -0.829742
183.050000 -0.829742 -0.829742
183.100000 -0.829742 -0.829742
183.150000 -0.829742 -0.829742
183.200000 -0.829742 -0.829742
183.250000 -0.829742 -0.829742
183.300000 -0.829742 -0.829742
183.350000 -0.829742 -0.829742
183.400000 -0.829742 -0.829742
183.450000 -0.829742 -0.829742
183.500000 -0.829742 -0.829742
183.550000 -0.829742 -0.829742
183.600000 -0.829742 -0.829742
183.650000 -0.829742 -0.829742
183.700000 -0.829742 -0.829742
183.750000 -0.829742 -0.829742
183.800000 -0.829742 -0.829742
183.850000 -0.829742 -0.829742
183.900000 -0.829742 -0.829742
183.950000 -0.829742 -0.829742
184.000000 -0.829742 -0.829742
184.050000 -0.829742 -0.829742
184.100000 -0.829742 -0.829742
184.150000 -0.829742 -0.829742
184.200000 -0.829742 -0.829742
184.250000 -0.829742 -0.829742
184.300000 -0.829742 -0.829742
184.350000 -0.829742 -0.829742
184.400000 -0.829742 -0.829742
184.450000 -0.829742 -0.829742
184.500000 -0.829742 -0.829742
184.550000 -0.829742 -0.829742
184.600000 -0.829742 -0.829742
184.650000 -0.829742 -0.829742
184.700000 -0.829742 -0.829742
184.750000 -0.829742 -0.829742
184.800000 -0.829742 -0.829742
184.850000 -0.829742 -0.829742
184.900000 -0.829742 -0.829742
184.950000 -0.829742 -0.829742
185.000000 -0.829742 -0.829742
185.050000 -0.829742 -0.829742
185.100000 -0.829742 -0.829742
185.150000 -0.829742 -0.829742
185.200000 -0.829742 -0.829742
185.250000 -0.829742 -0.829742
185.300000 -0.829742 -0.829742
185.350000 -0.829742 -0.829742
185.400000 -0.829742 -0.829742
185.450000 -0.829742 -0.829742
185.500000 -0.829742 -0.829742
185.550000 -0.829742 -0.829742
185.600000 -0.829742 -0.829742
185.650000 -0.829742 -0.829742
185.700000 -0.829742 -0.829742
185.750000 -0.829742 -0.829742
185.800000 -0.829742 -0.829742
185.850000 -0.829742 -0.829742
185.900000 -0.829742 -0.829742
185.950000 -0.829742 -0.829742
186.000000 -0.829742 -0.829742
186.050000 -0.829742 -0.829742
186.100000 -0.829742 -0.829742
186.150000 -0.829742 -0.829742
186.200000 -0.829742 -0.829742
186.250000 -0.829742 -0.829742
186.300000 -0.829742 -0.829742
186.350000 -0.829742 -0.829742
186.400000 -0.829742 -0.829742
186.450000 -0.829742 -0.829742
186.500000 -0.829742 -0.829742
186.550000 -0.829742 -0.829742
186.600000 -0.829742 -0.829742
186.650000 -0.829742 -0.829742
186.700000 -0.829742 -0.829742
186.750000 -0.829742 -0.829742
186.800000 -0.829742 -0.829742
186.850000 -0.829742 -0.829742
186.900000 -0.829742 -0.829742
186.950000 -0.829742 -0.829742
187.000000 -0.829742 -0.829742
