time[ns] Raw_signal[mV]
-11.150000 -0.605080
-11.100000 -0.454341
-11.050000 -0.331009
-11.000000 -0.224806
-10.950000 -0.115178
-10.900000 -0.022679
-10.850000 0.038987
-10.800000 0.083524
-10.750000 0.128061
-10.700000 0.186300
-10.650000 0.234263
-10.600000 0.241115
-10.550000 0.244541
-10.500000 0.237688
-10.450000 0.203429
-10.400000 0.141764
-10.350000 0.090375
-10.300000 0.025284
-10.250000 -0.056938
-10.200000 -0.132307
-10.150000 -0.187122
-10.100000 -0.228232
-10.050000 -0.255640
-10.000000 -0.255639
-9.950000 -0.207677
-9.900000 -0.111752
-9.850000 0.008154
-9.800000 0.114357
-9.750000 0.210281
-9.700000 0.316484
-9.650000 0.415835
-9.600000 0.474075
-9.550000 0.508334
-9.500000 0.535741
-9.450000 0.522037
-9.400000 0.460371
-9.350000 0.391853
-9.300000 0.326762
-9.250000 0.247967
-9.200000 0.158893
-9.150000 0.097227
-9.100000 0.038987
-9.050000 -0.063790
-9.000000 -0.173418
-8.950000 -0.276195
-8.900000 -0.385823
-8.850000 -0.505729
-8.800000 -0.608506
-8.750000 -0.707857
-8.700000 -0.772949
-8.650000 -0.790078
-8.600000 -0.762672
-8.550000 -0.694154
-8.500000 -0.570821
-8.450000 -0.430360
-8.400000 -0.300176
-8.350000 -0.176844
-8.300000 -0.077493
-8.250000 -0.029531
-8.200000 -0.022679
-8.150000 -0.046660
-8.100000 -0.142585
-8.050000 -0.296750
-8.000000 -0.440637
-7.950000 -0.587951
-7.900000 -0.748967
-7.850000 -0.886003
-7.800000 -0.968225
-7.750000 -0.985354
-7.700000 -0.951096
-7.650000 -0.892855
-7.600000 -0.834615
-7.550000 -0.745542
-7.500000 -0.611932
-7.450000 -0.492026
-7.400000 -0.416656
-7.350000 -0.341287
-7.300000 -0.265918
-7.250000 -0.228232
-7.200000 -0.235085
-7.150000 -0.255639
-7.100000 -0.293324
-7.050000 -0.348139
-7.000000 -0.399527
-6.950000 -0.416656
-6.900000 -0.409804
-6.850000 -0.402953
-6.800000 -0.402953
-6.750000 -0.368694
-6.700000 -0.293324
-6.650000 -0.211103
-6.600000 -0.132308
-6.550000 -0.029531
-6.500000 0.080098
-6.450000 0.155467
-6.400000 0.203430
-6.350000 0.237688
-6.300000 0.258244
-6.250000 0.268521
-6.200000 0.261669
-6.150000 0.237689
-6.100000 0.210281
-6.050000 0.189726
-6.000000 0.162319
-5.950000 0.121208
-5.900000 0.104079
-5.850000 0.117783
-5.800000 0.097227
-5.750000 0.035561
-5.700000 -0.012401
-5.650000 -0.043234
-5.600000 -0.080919
-5.550000 -0.101474
-5.500000 -0.074068
-5.450000 -0.043235
-5.400000 -0.022679
-5.350000 0.032135
-5.300000 0.107505
-5.250000 0.145190
-5.200000 0.169171
-5.150000 0.206856
-5.100000 0.227411
-5.050000 0.179449
-5.000000 0.090376
-4.950000 -0.019253
-4.900000 -0.163140
-4.850000 -0.334435
-4.800000 -0.509155
-4.750000 -0.659895
-4.700000 -0.790078
-4.650000 -0.889429
-4.600000 -0.947669
-4.550000 -0.978502
-4.500000 -0.992206
-4.450000 -0.985354
-4.400000 -0.961373
-4.350000 -0.930539
-4.300000 -0.913411
-4.250000 -0.892855
-4.200000 -0.838041
-4.150000 -0.762671
-4.100000 -0.666747
-4.050000 -0.553692
-4.000000 -0.420083
-3.950000 -0.269344
-3.900000 -0.104900
-3.850000 0.073246
-3.800000 0.265096
-3.750000 0.426113
-3.700000 0.542592
-3.650000 0.621388
-3.600000 0.672777
-3.550000 0.669351
-3.500000 0.597407
-3.450000 0.487778
-3.400000 0.405557
-3.350000 0.350743
-3.300000 0.220559
-3.250000 -0.015827
-3.200000 -0.152862
-3.150000 -0.098049
-3.100000 -0.111752
-3.050000 -0.272769
-3.000000 -0.283046
-2.950000 -0.132308
-2.900000 -0.111753
-2.850000 -0.166566
-2.800000 -0.104900
-2.750000 -0.087771
-2.700000 -0.111752
-2.650000 0.045839
-2.600000 0.182874
-2.550000 0.035561
-2.500000 -0.070641
-2.450000 0.004729
-2.400000 -0.122030
-2.350000 -0.413230
-2.300000 -0.437211
-2.250000 -0.413231
-2.200000 -0.649617
-2.150000 -0.772949
-2.100000 -0.553692
-2.050000 -0.447489
-2.000000 -0.591377
-1.950000 -0.622210
-1.900000 -0.457767
-1.850000 -0.279621
-1.800000 -0.094622
-1.750000 -0.005549
-1.700000 -0.135733
-1.650000 -0.262492
-1.600000 -0.279621
-1.550000 -0.423508
-1.500000 -0.646191
-1.450000 -0.598228
-1.400000 -0.413231
-1.350000 -0.372119
-1.300000 -0.313879
-1.250000 -0.183696
-1.200000 -0.152863
-1.150000 -0.080919
-1.100000 0.176022
-1.050000 0.203430
-1.000000 -0.139159
-0.950000 -0.327583
-0.900000 -0.296750
-0.850000 -0.471470
-0.800000 -0.731838
-0.750000 -0.766097
-0.700000 -0.810634
-0.650000 -0.978502
-0.600000 -0.940817
-0.550000 -0.735264
-0.500000 -0.646191
-0.450000 -0.581099
-0.400000 -0.389249
-0.350000 -0.214529
-0.300000 -0.149437
-0.250000 -0.122030
-0.200000 -0.163141
-0.150000 -0.262491
-0.100000 -0.354990
-0.050000 -0.447489
0.000000 -0.516007
0.050000 -0.502304
0.100000 -0.516007
0.150000 -0.598229
0.200000 -0.526284
0.250000 -0.296750
0.300000 -0.228232
0.350000 -0.324158
0.400000 -0.248787
0.450000 -0.012402
0.500000 0.107504
0.550000 0.124634
0.600000 0.196578
0.650000 0.265095
0.700000 0.282226
0.750000 0.367873
0.800000 0.590555
0.850000 0.967404
0.900000 1.566934
0.950000 2.512479
1.000000 3.865706
1.050000 5.684855
1.100000 8.079549
1.150000 11.145726
1.200000 14.883366
1.250000 19.251376
1.300000 24.212068
1.350000 29.720903
1.400000 35.664820
1.450000 41.889660
1.500000 48.385151
1.550000 55.158130
1.600000 62.047600
1.650000 68.844560
1.700000 75.494210
1.750000 81.921180
1.800000 87.899360
1.850000 93.240330
1.900000 97.937220
1.950000 101.921540
2.000000 105.015110
2.050000 107.135740
2.100000 108.327950
2.150000 108.639700
2.200000 108.094980
2.250000 106.686940
2.300000 104.456690
2.350000 101.544690
2.400000 98.142780
2.450000 94.336610
2.500000 90.163880
2.550000 85.744480
2.600000 81.119530
2.650000 76.278740
2.700000 71.270100
2.750000 66.168940
2.800000 60.971870
2.850000 55.689140
2.900000 50.533180
2.950000 45.709530
3.000000 41.252440
3.050000 37.257860
3.100000 33.962150
3.150000 31.423570
3.200000 29.594150
3.250000 28.552668
3.300000 28.329988
3.350000 28.768501
3.400000 29.731176
3.450000 31.197462
3.500000 33.016607
3.550000 34.962510
3.600000 36.935820
3.650000 38.864600
3.700000 40.608380
3.750000 42.074660
3.800000 43.246310
3.850000 44.085650
3.900000 44.534450
3.950000 44.589260
4.000000 44.298060
4.050000 43.657420
4.100000 42.650210
4.150000 41.317540
4.200000 39.724500
4.250000 37.908780
4.300000 35.890930
4.350000 33.694940
4.400000 31.420140
4.450000 29.114520
4.500000 26.784910
4.550000 24.448460
4.600000 22.201070
4.650000 20.077016
4.700000 18.090001
4.750000 16.270851
4.800000 14.688098
4.850000 13.375981
4.900000 12.358490
4.950000 11.618495
5.000000 11.159429
5.050000 11.012116
5.100000 11.145719
5.150000 11.536276
5.200000 12.173493
5.250000 13.012836
5.300000 13.965231
5.350000 14.969012
5.400000 15.972799
5.450000 16.932054
5.500000 17.805656
5.550000 18.566202
5.600000 19.179436
5.650000 19.631657
5.700000 19.919431
5.750000 19.994796
5.800000 19.847483
5.850000 19.546009
5.900000 19.134894
5.950000 18.566205
6.000000 17.843333
6.050000 17.017696
6.100000 16.106415
6.150000 15.102629
6.200000 14.033744
6.250000 12.954595
6.300000 11.889139
6.350000 10.854522
6.400000 9.871292
6.450000 8.929171
6.500000 8.000755
6.550000 7.103172
6.600000 6.325496
6.650000 5.671151
6.700000 5.109305
6.750000 4.650235
6.800000 4.362460
6.850000 4.215147
6.900000 4.146630
6.950000 4.201444
7.000000 4.410423
7.050000 4.711901
7.100000 5.092175
7.150000 5.564944
7.200000 6.048000
7.250000 6.476232
7.300000 6.904474
7.350000 7.332710
7.400000 7.654741
7.450000 7.904829
7.500000 8.127518
7.550000 8.261120
7.600000 8.302232
7.650000 8.336497
7.700000 8.329643
7.750000 8.223435
7.800000 8.045296
7.850000 7.850016
7.900000 7.586223
7.950000 7.250486
8.000000 6.866786
8.050000 6.431698
8.100000 5.941795
8.150000 5.417635
8.200000 4.845511
8.250000 4.232276
8.300000 3.649876
8.350000 3.101733
8.400000 2.574145
8.450000 2.118502
8.500000 1.738228
8.550000 1.395639
8.600000 1.114716
8.650000 0.936570
8.700000 0.806386
8.750000 0.710461
8.800000 0.700184
8.850000 0.775553
8.900000 0.885182
8.950000 1.015366
9.000000 1.200364
9.050000 1.450454
9.100000 1.748507
9.150000 2.063689
9.200000 2.389148
9.250000 2.714607
9.300000 3.036641
9.350000 3.331267
9.400000 3.567654
9.450000 3.725244
9.500000 3.793762
9.550000 3.759504
9.600000 3.632746
9.650000 3.447747
9.700000 3.231916
9.750000 2.954420
9.800000 2.584423
9.850000 2.187020
9.900000 1.823876
9.950000 1.460731
10.000000 1.083883
10.050000 0.744720
10.100000 0.456946
10.150000 0.155468
10.200000 -0.132307
10.250000 -0.358416
10.300000 -0.570821
10.350000 -0.793504
10.400000 -0.988780
10.450000 -1.132668
10.500000 -1.235444
10.550000 -1.290259
10.600000 -1.290258
10.650000 -1.262851
10.700000 -1.177204
10.750000 -0.999057
10.800000 -0.766097
10.850000 -0.533137
10.900000 -0.265917
10.950000 0.038987
11.000000 0.316484
11.050000 0.563148
11.100000 0.792683
11.150000 0.991385
11.200000 1.148976
11.250000 1.282586
11.300000 1.381936
11.350000 1.426473
11.400000 1.447028
11.450000 1.447027
11.500000 1.395639
11.550000 1.313418
11.600000 1.190086
11.650000 1.022217
11.700000 0.826942
11.750000 0.621388
11.800000 0.374724
11.850000 0.104079
11.900000 -0.152863
11.950000 -0.430360
12.000000 -0.714708
12.050000 -0.978502
12.100000 -1.218315
12.150000 -1.447849
12.200000 -1.619144
12.250000 -1.715069
12.300000 -1.780160
12.350000 -1.793865
12.400000 -1.735624
12.450000 -1.636273
12.500000 -1.519793
12.550000 -1.355350
12.600000 -1.173778
12.650000 -1.019613
12.700000 -0.862022
12.750000 -0.701005
12.800000 -0.574248
12.850000 -0.512581
12.900000 -0.492026
12.950000 -0.485175
13.000000 -0.471471
13.050000 -0.457767
13.100000 -0.471471
13.150000 -0.495452
13.200000 -0.519433
13.250000 -0.574247
13.300000 -0.666746
13.350000 -0.748968
13.400000 -0.807207
13.450000 -0.886003
13.500000 -0.995631
13.550000 -1.129241
13.600000 -1.266277
13.650000 -1.393035
13.700000 -1.475256
13.750000 -1.557477
13.800000 -1.667106
13.850000 -1.745902
13.900000 -1.769883
13.950000 -1.787013
14.000000 -1.810993
14.050000 -1.824697
14.100000 -1.845252
14.150000 -1.862382
14.200000 -1.838400
14.250000 -1.793864
14.300000 -1.766457
14.350000 -1.721920
14.400000 -1.632847
14.450000 -1.540349
14.500000 -1.447849
14.550000 -1.348499
14.600000 -1.269703
14.650000 -1.228593
14.700000 -1.201185
14.750000 -1.204611
14.800000 -1.245722
14.850000 -1.300536
14.900000 -1.362202
14.950000 -1.458127
15.000000 -1.567755
15.050000 -1.653402
15.100000 -1.718495
15.150000 -1.766457
15.200000 -1.783587
15.250000 -1.804141
15.300000 -1.810994
15.350000 -1.776735
15.400000 -1.728772
15.450000 -1.732198
15.500000 -1.787012
15.550000 -1.869234
15.600000 -1.985714
15.650000 -2.122749
15.700000 -2.266637
15.750000 -2.451635
15.800000 -2.660614
15.850000 -2.787373
15.900000 -2.835335
15.950000 -2.879871
16.000000 -2.873019
16.050000 -2.770242
16.100000 -2.650336
16.150000 -2.561264
16.200000 -2.410525
16.250000 -2.204971
16.300000 -2.050806
16.350000 -1.951456
16.400000 -1.855530
16.450000 -1.763031
16.500000 -1.701365
16.550000 -1.646551
16.600000 -1.595163
16.650000 -1.564329
16.700000 -1.530071
16.750000 -1.488960
16.800000 -1.482108
16.850000 -1.478683
16.900000 -1.447849
16.950000 -1.430720
17.000000 -1.454701
17.050000 -1.475257
17.100000 -1.488960
17.150000 -1.516367
17.200000 -1.533496
17.250000 -1.550626
17.300000 -1.612292
17.350000 -1.704791
17.400000 -1.797290
17.450000 -1.930900
17.500000 -2.098768
17.550000 -2.263211
17.600000 -2.420802
17.650000 -2.568116
17.700000 -2.674318
17.750000 -2.763391
17.800000 -2.842186
17.850000 -2.866167
17.900000 -2.845613
17.950000 -2.831909
18.000000 -2.818205
18.050000 -2.766816
18.100000 -2.732558
18.150000 -2.708576
18.200000 -2.653762
18.250000 -2.592096
18.300000 -2.564689
18.350000 -2.533856
18.400000 -2.492746
18.450000 -2.444783
18.500000 -2.396821
18.550000 -2.331729
18.600000 -2.242656
18.650000 -2.139879
18.700000 -2.057658
18.750000 -1.992566
18.800000 -1.924048
18.850000 -1.882938
18.900000 -1.900067
18.950000 -1.927474
19.000000 -1.937751
19.050000 -1.999417
19.100000 -2.115898
19.150000 -2.222100
19.200000 -2.318026
19.250000 -2.441358
19.300000 -2.581818
19.350000 -2.718855
19.400000 -2.842186
19.450000 -2.920982
19.500000 -2.958666
19.550000 -2.982648
19.600000 -2.979222
19.650000 -2.914130
19.700000 -2.838760
19.750000 -2.811354
19.800000 -2.783946
19.850000 -2.729132
19.900000 -2.708577
19.950000 -2.732558
20.000000 -2.742836
20.050000 -2.735984
20.100000 -2.756539
20.150000 -2.804501
20.200000 -2.821631
20.250000 -2.797650
20.300000 -2.746262
20.350000 -2.650337
20.400000 -2.499598
20.450000 -2.324877
20.500000 -2.150157
20.550000 -1.985714
20.600000 -1.865807
20.650000 -1.800716
20.700000 -1.810994
20.750000 -1.913771
20.800000 -2.088490
20.850000 -2.294044
20.900000 -2.509876
20.950000 -2.735984
21.000000 -2.968944
21.050000 -3.167646
21.100000 -3.280700
21.150000 -3.314959
21.200000 -3.294404
21.250000 -3.208756
21.300000 -3.068295
21.350000 -2.927833
21.400000 -2.801076
21.450000 -2.664040
21.500000 -2.544134
21.550000 -2.499598
21.600000 -2.499597
21.650000 -2.489320
21.700000 -2.496172
21.750000 -2.550985
21.800000 -2.585245
21.850000 -2.581819
21.900000 -2.574967
21.950000 -2.578393
22.000000 -2.568115
22.050000 -2.544134
22.100000 -2.516727
22.150000 -2.516727
22.200000 -2.530431
22.250000 -2.550986
22.300000 -2.598948
22.350000 -2.684596
22.400000 -2.790798
22.450000 -2.893575
22.500000 -2.986074
22.550000 -3.058018
22.600000 -3.085425
22.650000 -3.081999
22.700000 -3.058018
22.750000 -2.996352
22.800000 -2.893575
22.850000 -2.787372
22.900000 -2.670892
22.950000 -2.533857
23.000000 -2.396821
23.050000 -2.287193
23.100000 -2.208397
23.150000 -2.170712
23.200000 -2.153583
23.250000 -2.146731
23.300000 -2.177564
23.350000 -2.280340
23.400000 -2.379691
23.450000 -2.458487
23.500000 -2.564690
23.550000 -2.674318
23.600000 -2.739410
23.650000 -2.797650
23.700000 -2.859316
23.750000 -2.873019
23.800000 -2.855890
23.850000 -2.862742
23.900000 -2.842187
23.950000 -2.780521
24.000000 -2.729132
24.050000 -2.660614
24.100000 -2.523579
24.150000 -2.410525
24.200000 -2.345432
24.250000 -2.252933
24.300000 -2.146731
24.350000 -2.078213
24.400000 -2.013121
24.450000 -1.924048
24.500000 -1.855530
24.550000 -1.797290
24.600000 -1.701365
24.650000 -1.619143
24.700000 -1.574607
24.750000 -1.519793
24.800000 -1.485534
24.850000 -1.512941
24.900000 -1.598589
24.950000 -1.718495
25.000000 -1.889789
25.050000 -2.078213
25.100000 -2.252933
25.150000 -2.437932
25.200000 -2.626355
25.250000 -2.756540
25.300000 -2.842186
25.350000 -2.903853
25.400000 -2.897001
25.450000 -2.814779
25.500000 -2.722280
25.550000 -2.622929
25.600000 -2.496171
25.650000 -2.386543
25.700000 -2.342006
25.750000 -2.342007
25.800000 -2.365987
25.850000 -2.407098
25.900000 -2.441357
25.950000 -2.482468
26.000000 -2.527004
26.050000 -2.547560
26.100000 -2.516726
26.150000 -2.448209
26.200000 -2.362562
26.250000 -2.246081
26.300000 -2.122749
26.350000 -2.023399
26.400000 -1.930900
26.450000 -1.858956
26.500000 -1.821272
26.550000 -1.821271
26.600000 -1.852104
26.650000 -1.937751
26.700000 -2.040528
26.750000 -2.122750
26.800000 -2.228952
26.850000 -2.365987
26.900000 -2.455061
26.950000 -2.479042
27.000000 -2.468765
27.050000 -2.407099
27.100000 -2.304322
27.150000 -2.232378
27.200000 -2.174138
27.250000 -2.109046
27.300000 -2.085065
27.350000 -2.133028
27.400000 -2.208396
27.450000 -2.307747
27.500000 -2.441357
27.550000 -2.581819
27.600000 -2.684595
27.650000 -2.735983
27.700000 -2.708576
27.750000 -2.609226
27.800000 -2.472190
27.850000 -2.294044
27.900000 -2.081639
27.950000 -1.896641
28.000000 -1.759605
28.050000 -1.653403
28.100000 -1.598588
28.150000 -1.636274
28.200000 -1.766457
28.250000 -1.972010
28.300000 -2.204970
28.350000 -2.417377
28.400000 -2.592096
28.450000 -2.739410
28.500000 -2.845612
28.550000 -2.893575
28.600000 -2.873019
28.650000 -2.801076
28.700000 -2.715428
28.750000 -2.646911
28.800000 -2.581819
28.850000 -2.527004
28.900000 -2.547560
28.950000 -2.616078
29.000000 -2.684596
29.050000 -2.763391
29.100000 -2.883297
29.150000 -2.999778
29.200000 -3.092277
29.250000 -3.167646
29.300000 -3.222460
29.350000 -3.236164
29.400000 -3.177924
29.450000 -3.058018
29.500000 -2.910704
29.550000 -2.749688
29.600000 -2.574967
29.650000 -2.389969
29.700000 -2.225526
29.750000 -2.091917
29.800000 -1.995992
29.850000 -1.941177
29.900000 -1.920622
29.950000 -1.954881
30.000000 -2.064509
30.050000 -2.201545
30.100000 -2.307748
30.150000 -2.396821
30.200000 -2.468765
30.250000 -2.489320
30.300000 -2.458487
30.350000 -2.407098
30.400000 -2.342007
30.450000 -2.259786
30.500000 -2.187841
30.550000 -2.153583
30.600000 -2.153582
30.650000 -2.194693
30.700000 -2.259785
30.750000 -2.369414
30.800000 -2.530431
30.850000 -2.688022
30.900000 -2.801076
30.950000 -2.900427
31.000000 -2.975796
31.050000 -2.989500
31.100000 -2.938112
31.150000 -2.862742
31.200000 -2.770243
31.250000 -2.653762
31.300000 -2.533857
31.350000 -2.413950
31.400000 -2.304322
31.450000 -2.235804
31.500000 -2.211823
31.550000 -2.204971
31.600000 -2.242656
31.650000 -2.321451
31.700000 -2.431080
31.750000 -2.544134
31.800000 -2.643485
31.850000 -2.712002
31.900000 -2.739410
31.950000 -2.742835
32.000000 -2.694873
32.050000 -2.588671
32.100000 -2.448209
32.150000 -2.304322
32.200000 -2.150157
32.250000 -1.975436
32.300000 -1.810994
32.350000 -1.718495
32.400000 -1.715069
32.450000 -1.766457
32.500000 -1.886363
32.550000 -2.081639
32.600000 -2.314600
32.650000 -2.544134
32.700000 -2.790798
32.750000 -3.020333
32.800000 -3.198479
32.850000 -3.297830
32.900000 -3.332089
32.950000 -3.301256
33.000000 -3.212183
33.050000 -3.081999
33.100000 -2.914130
33.150000 -2.732558
33.200000 -2.547560
33.250000 -2.355710
33.300000 -2.187842
33.350000 -2.078213
33.400000 -2.023399
33.450000 -1.999418
33.500000 -1.995992
33.550000 -2.030251
33.600000 -2.109046
33.650000 -2.201545
33.700000 -2.280341
33.750000 -2.386543
33.800000 -2.544134
33.850000 -2.681170
33.900000 -2.804502
33.950000 -2.958667
34.000000 -3.109406
34.050000 -3.212183
34.100000 -3.297830
34.150000 -3.386903
34.200000 -3.434865
34.250000 -3.414310
34.300000 -3.359496
34.350000 -3.273848
34.400000 -3.153943
34.450000 -3.016907
34.500000 -2.883297
34.550000 -2.759965
34.600000 -2.629782
34.650000 -2.496171
34.700000 -2.389969
34.750000 -2.324877
34.800000 -2.283766
34.850000 -2.270063
34.900000 -2.304322
34.950000 -2.359136
35.000000 -2.386543
35.050000 -2.407099
35.100000 -2.451635
35.150000 -2.496172
35.200000 -2.533856
35.250000 -2.592096
35.300000 -2.657188
35.350000 -2.725706
35.400000 -2.835335
35.450000 -2.965518
35.500000 -3.058018
35.550000 -3.143665
35.600000 -3.256719
35.650000 -3.349218
35.700000 -3.407458
35.750000 -3.496532
35.800000 -3.599308
35.850000 -3.660974
35.900000 -3.691807
35.950000 -3.729492
36.000000 -3.736344
36.050000 -3.702085
36.100000 -3.643845
36.150000 -3.565049
36.200000 -3.472551
36.250000 -3.376626
36.300000 -3.249867
36.350000 -3.088851
36.400000 -2.903853
36.450000 -2.729132
36.500000 -2.571541
36.550000 -2.455061
36.600000 -2.383118
36.650000 -2.335155
36.700000 -2.318026
36.750000 -2.348858
36.800000 -2.407099
36.850000 -2.485894
36.900000 -2.571541
36.950000 -2.664040
37.000000 -2.735984
37.050000 -2.777095
37.100000 -2.777094
37.150000 -2.749688
37.200000 -2.712002
37.250000 -2.653762
37.300000 -2.581819
37.350000 -2.537282
37.400000 -2.533856
37.450000 -2.523579
37.500000 -2.527004
37.550000 -2.595522
37.600000 -2.667466
37.650000 -2.718855
37.700000 -2.801076
37.750000 -2.920982
37.800000 -3.023758
37.850000 -3.109406
37.900000 -3.208756
37.950000 -3.290978
38.000000 -3.356070
38.050000 -3.414310
38.100000 -3.434865
38.150000 -3.397181
38.200000 -3.314959
38.250000 -3.215609
38.300000 -3.078573
38.350000 -2.924407
38.400000 -2.783946
38.450000 -2.640059
38.500000 -2.499597
38.550000 -2.420802
38.600000 -2.403673
38.650000 -2.417377
38.700000 -2.444783
38.750000 -2.537283
38.800000 -2.694873
38.850000 -2.852465
38.900000 -2.986074
38.950000 -3.140238
39.000000 -3.318386
39.050000 -3.424587
39.100000 -3.438291
39.150000 -3.404033
39.200000 -3.332088
39.250000 -3.195053
39.300000 -3.013481
39.350000 -2.825057
39.400000 -2.602374
39.450000 -2.359136
39.500000 -2.157009
39.550000 -2.026825
39.600000 -1.937751
39.650000 -1.896641
39.700000 -1.930900
39.750000 -2.013121
39.800000 -2.119323
39.850000 -2.256359
39.900000 -2.400247
39.950000 -2.527004
40.000000 -2.653763
40.050000 -2.766817
40.100000 -2.842187
40.150000 -2.890149
40.200000 -2.931259
40.250000 -2.951815
40.300000 -2.962093
40.350000 -2.986074
40.400000 -3.010055
40.450000 -3.030611
40.500000 -3.078573
40.550000 -3.147091
40.600000 -3.188201
40.650000 -3.219034
40.700000 -3.256720
40.750000 -3.263571
40.800000 -3.229312
40.850000 -3.195053
40.900000 -3.160795
40.950000 -3.112832
41.000000 -3.071721
41.050000 -3.044314
41.100000 -3.013481
41.150000 -2.992925
41.200000 -3.003203
41.250000 -3.020333
41.300000 -3.047739
41.350000 -3.099128
41.400000 -3.160794
41.450000 -3.225886
41.500000 -3.280700
41.550000 -3.318385
41.600000 -3.352644
41.650000 -3.373200
41.700000 -3.373200
41.750000 -3.345792
41.800000 -3.311533
41.850000 -3.277275
41.900000 -3.243016
41.950000 -3.222461
42.000000 -3.198479
42.050000 -3.143665
42.100000 -3.095702
42.150000 -3.095703
42.200000 -3.102554
42.250000 -3.081999
42.300000 -3.064869
42.350000 -3.081999
42.400000 -3.105980
42.450000 -3.133387
42.500000 -3.147091
42.550000 -3.143664
42.600000 -3.143665
42.650000 -3.136813
42.700000 -3.105980
42.750000 -3.078573
42.800000 -3.075147
42.850000 -3.075148
42.900000 -3.023759
42.950000 -2.944963
43.000000 -2.876445
43.050000 -2.807928
43.100000 -2.729132
43.150000 -2.660615
43.200000 -2.612651
43.250000 -2.571541
43.300000 -2.554412
43.350000 -2.571541
43.400000 -2.616077
43.450000 -2.691447
43.500000 -2.759965
43.550000 -2.794224
43.600000 -2.845612
43.650000 -2.920982
43.700000 -2.968944
43.750000 -2.979222
43.800000 -3.020333
43.850000 -3.071721
43.900000 -3.078573
43.950000 -3.061444
44.000000 -3.051166
44.050000 -3.023758
44.100000 -2.986074
44.150000 -2.975796
44.200000 -2.989499
44.250000 -3.010055
44.300000 -3.030610
44.350000 -3.044314
44.400000 -3.051166
44.450000 -3.037462
44.500000 -3.013481
44.550000 -2.999777
44.600000 -2.979222
44.650000 -2.903852
44.700000 -2.790798
44.750000 -2.694873
44.800000 -2.592097
44.850000 -2.451635
44.900000 -2.300896
44.950000 -2.191268
45.000000 -2.115898
45.050000 -2.071362
45.100000 -2.088491
45.150000 -2.167286
45.200000 -2.290619
45.250000 -2.461913
45.300000 -2.674318
45.350000 -2.897001
45.400000 -3.112832
45.450000 -3.297830
45.500000 -3.469124
45.550000 -3.619863
45.600000 -3.722640
45.650000 -3.746622
45.700000 -3.705510
45.750000 -3.636993
45.800000 -3.523939
45.850000 -3.352644
45.900000 -3.143665
45.950000 -2.948389
46.000000 -2.763391
46.050000 -2.581819
46.100000 -2.403673
46.150000 -2.263211
46.200000 -2.153582
46.250000 -2.074787
46.300000 -2.047380
46.350000 -2.054232
46.400000 -2.074787
46.450000 -2.109046
46.500000 -2.191268
46.550000 -2.335155
46.600000 -2.482468
46.650000 -2.605800
46.700000 -2.715429
46.750000 -2.828483
46.800000 -2.917556
46.850000 -2.944963
46.900000 -2.931259
46.950000 -2.917556
47.000000 -2.914130
47.050000 -2.893575
47.100000 -2.849038
47.150000 -2.825057
47.200000 -2.838761
47.250000 -2.862742
47.300000 -2.890149
47.350000 -2.934685
47.400000 -3.010055
47.450000 -3.075147
47.500000 -3.116258
47.550000 -3.129962
47.600000 -3.123110
47.650000 -3.075147
47.700000 -2.992925
47.750000 -2.866168
47.800000 -2.749688
47.850000 -2.681170
47.900000 -2.643485
47.950000 -2.602375
48.000000 -2.588671
48.050000 -2.629781
48.100000 -2.701725
48.150000 -2.773668
48.200000 -2.828483
48.250000 -2.859316
48.300000 -2.886723
48.350000 -2.927834
48.400000 -2.965519
48.450000 -2.992926
48.500000 -3.034036
48.550000 -3.092276
48.600000 -3.157369
48.650000 -3.246442
48.700000 -3.356070
48.750000 -3.424588
48.800000 -3.475976
48.850000 -3.527364
48.900000 -3.520512
48.950000 -3.421162
49.000000 -3.294404
49.050000 -3.184775
49.100000 -3.044314
49.150000 -2.886723
49.200000 -2.790798
49.250000 -2.766817
49.300000 -2.783947
49.350000 -2.849038
49.400000 -2.955241
49.450000 -3.064870
49.500000 -3.171072
49.550000 -3.273848
49.600000 -3.332088
49.650000 -3.362922
49.700000 -3.362921
49.750000 -3.287552
49.800000 -3.133388
49.850000 -2.979222
49.900000 -2.831909
49.950000 -2.674318
50.000000 -2.523579
50.050000 -2.427654
50.100000 -2.383118
50.150000 -2.355710
50.200000 -2.324878
50.250000 -2.294044
50.300000 -2.280340
50.350000 -2.266637
50.400000 -2.218674
50.450000 -2.150156
50.500000 -2.109046
50.550000 -2.088491
50.600000 -2.081639
50.650000 -2.098768
50.700000 -2.146731
50.750000 -2.235804
50.800000 -2.379692
50.850000 -2.561264
50.900000 -2.739410
50.950000 -2.927834
51.000000 -3.102554
51.050000 -3.198479
51.100000 -3.205331
51.150000 -3.136813
51.200000 -3.034037
51.250000 -2.920982
51.300000 -2.814780
51.350000 -2.698300
51.400000 -2.571541
51.450000 -2.475616
51.500000 -2.451635
51.550000 -2.479042
51.600000 -2.568115
51.650000 -2.722281
51.700000 -2.907279
51.750000 -3.105980
51.800000 -3.301256
51.850000 -3.479402
51.900000 -3.599308
51.950000 -3.664400
52.000000 -3.667826
52.050000 -3.606160
52.100000 -3.499958
52.150000 -3.376625
52.200000 -3.243016
52.250000 -3.105980
52.300000 -2.986073
52.350000 -2.900427
52.400000 -2.825057
52.450000 -2.746261
52.500000 -2.712002
52.550000 -2.718854
52.600000 -2.725706
52.650000 -2.712002
52.700000 -2.688021
52.750000 -2.633208
52.800000 -2.578393
52.850000 -2.544134
52.900000 -2.513301
52.950000 -2.479042
53.000000 -2.468765
53.050000 -2.489319
53.100000 -2.520153
53.150000 -2.598948
53.200000 -2.725706
53.250000 -2.859316
53.300000 -2.968944
53.350000 -3.095703
53.400000 -3.246442
53.450000 -3.369774
53.500000 -3.438291
53.550000 -3.479402
53.600000 -3.496531
53.650000 -3.475976
53.700000 -3.417736
53.750000 -3.332089
53.800000 -3.219034
53.850000 -3.099128
53.900000 -2.989500
53.950000 -2.907279
54.000000 -2.825057
54.050000 -2.749688
54.100000 -2.705150
54.150000 -2.691447
54.200000 -2.701725
54.250000 -2.739410
54.300000 -2.804502
54.350000 -2.879871
54.400000 -2.944963
54.450000 -2.986074
54.500000 -3.013481
54.550000 -3.030610
54.600000 -3.030610
54.650000 -3.003203
54.700000 -2.968945
54.750000 -2.931259
54.800000 -2.886723
54.850000 -2.831909
54.900000 -2.773669
54.950000 -2.735984
55.000000 -2.725707
55.050000 -2.708577
55.100000 -2.681169
55.150000 -2.708577
55.200000 -2.787373
55.250000 -2.835334
55.300000 -2.876446
55.350000 -2.965519
55.400000 -3.068295
55.450000 -3.126536
55.500000 -3.167646
55.550000 -3.205331
55.600000 -3.229312
55.650000 -3.246442
55.700000 -3.232738
55.750000 -3.188201
55.800000 -3.143665
55.850000 -3.095702
55.900000 -2.999778
55.950000 -2.883297
56.000000 -2.821631
56.050000 -2.801075
56.100000 -2.780520
56.150000 -2.780520
56.200000 -2.804501
56.250000 -2.849039
56.300000 -2.924408
56.350000 -3.010055
56.400000 -3.071721
56.450000 -3.123109
56.500000 -3.167646
56.550000 -3.188202
56.600000 -3.177924
56.650000 -3.140239
56.700000 -3.054592
56.750000 -2.927834
56.800000 -2.818205
56.850000 -2.725707
56.900000 -2.643485
56.950000 -2.612652
57.000000 -2.660614
57.050000 -2.756539
57.100000 -2.886723
57.150000 -3.037462
57.200000 -3.184776
57.250000 -3.338941
57.300000 -3.493105
57.350000 -3.595882
57.400000 -3.613012
57.450000 -3.609586
57.500000 -3.602734
57.550000 -3.582179
57.600000 -3.537642
57.650000 -3.493105
57.700000 -3.448569
57.750000 -3.424588
57.800000 -3.417736
57.850000 -3.407459
57.900000 -3.386903
57.950000 -3.386903
58.000000 -3.383477
58.050000 -3.338940
58.100000 -3.284127
58.150000 -3.222460
58.200000 -3.147091
58.250000 -3.051165
58.300000 -2.968944
58.350000 -2.903852
58.400000 -2.845613
58.450000 -2.811354
58.500000 -2.794224
58.550000 -2.783947
58.600000 -2.777094
58.650000 -2.773669
58.700000 -2.787372
58.750000 -2.845613
58.800000 -2.920982
58.850000 -2.972370
58.900000 -3.037462
58.950000 -3.109406
59.000000 -3.143665
59.050000 -3.140239
59.100000 -3.160795
59.150000 -3.174498
59.200000 -3.133387
59.250000 -3.092276
59.300000 -3.085424
59.350000 -3.058018
59.400000 -3.006629
59.450000 -2.989500
59.500000 -3.003203
59.550000 -3.013481
59.600000 -3.047740
59.650000 -3.112832
59.700000 -3.171072
59.750000 -3.215608
59.800000 -3.284126
59.850000 -3.356070
59.900000 -3.373200
59.950000 -3.383477
60.000000 -3.383477
60.050000 -3.332089
60.100000 -3.222461
60.150000 -3.119683
60.200000 -3.023759
60.250000 -2.910704
60.300000 -2.777095
60.350000 -2.670892
60.400000 -2.595523
60.450000 -2.581819
60.500000 -2.619503
60.550000 -2.691447
60.600000 -2.807927
60.650000 -2.965519
60.700000 -3.105980
60.750000 -3.222460
60.800000 -3.345793
60.850000 -3.445143
60.900000 -3.472550
60.950000 -3.465698
61.000000 -3.428013
61.050000 -3.345793
61.100000 -3.236164
61.150000 -3.123110
61.200000 -3.020333
61.250000 -2.951815
61.300000 -2.924407
61.350000 -2.907278
61.400000 -2.910705
61.450000 -2.948390
61.500000 -2.979222
61.550000 -2.975796
61.600000 -2.992926
61.650000 -3.013481
61.700000 -2.979222
61.750000 -2.938112
61.800000 -2.934686
61.850000 -2.910704
61.900000 -2.842187
61.950000 -2.797650
62.000000 -2.777095
62.050000 -2.746261
62.100000 -2.718855
62.150000 -2.705151
62.200000 -2.664040
62.250000 -2.602374
62.300000 -2.550986
62.350000 -2.496172
62.400000 -2.434506
62.450000 -2.403672
62.500000 -2.413950
62.550000 -2.458487
62.600000 -2.527005
62.650000 -2.622930
62.700000 -2.763391
62.750000 -2.951815
62.800000 -3.140239
62.850000 -3.280700
62.900000 -3.366348
62.950000 -3.417736
63.000000 -3.417736
63.050000 -3.342367
63.100000 -3.198480
63.150000 -3.006629
63.200000 -2.807928
63.250000 -2.626356
63.300000 -2.448209
63.350000 -2.266637
63.400000 -2.136453
63.450000 -2.085065
63.500000 -2.074787
63.550000 -2.098768
63.600000 -2.184415
63.650000 -2.304321
63.700000 -2.424228
63.750000 -2.547560
63.800000 -2.664040
63.850000 -2.742836
63.900000 -2.777095
63.950000 -2.787373
64.000000 -2.763391
64.050000 -2.729132
64.100000 -2.712002
64.150000 -2.712002
64.200000 -2.712003
64.250000 -2.729132
64.300000 -2.753113
64.350000 -2.753113
64.400000 -2.753114
64.450000 -2.763391
64.500000 -2.770243
64.550000 -2.770243
64.600000 -2.766817
64.650000 -2.735983
64.700000 -2.674318
64.750000 -2.626356
64.800000 -2.605800
64.850000 -2.568116
64.900000 -2.513301
64.950000 -2.489320
65.000000 -2.533857
65.050000 -2.571541
65.100000 -2.544134
65.150000 -2.516727
65.200000 -2.506450
65.250000 -2.461913
65.300000 -2.348858
65.350000 -2.246081
65.400000 -2.174138
65.450000 -2.085065
65.500000 -1.982288
65.550000 -1.924048
65.600000 -1.913770
65.650000 -1.934326
65.700000 -1.982288
65.750000 -2.050806
65.800000 -2.153583
65.850000 -2.304321
65.900000 -2.475617
65.950000 -2.619504
66.000000 -2.742836
66.050000 -2.849038
66.100000 -2.907279
66.150000 -2.934686
66.200000 -2.965519
66.250000 -2.955241
66.300000 -2.903852
66.350000 -2.866168
66.400000 -2.842187
66.450000 -2.763391
66.500000 -2.664040
66.550000 -2.622930
66.600000 -2.585245
66.650000 -2.492745
66.700000 -2.403672
66.750000 -2.372840
66.800000 -2.386543
66.850000 -2.393395
66.900000 -2.396820
66.950000 -2.417376
67.000000 -2.485894
67.050000 -2.554412
67.100000 -2.585245
67.150000 -2.626355
67.200000 -2.698299
67.250000 -2.749687
67.300000 -2.753113
67.350000 -2.787372
67.400000 -2.821631
67.450000 -2.766817
67.500000 -2.667466
67.550000 -2.598948
67.600000 -2.509875
67.650000 -2.403672
67.700000 -2.352284
67.750000 -2.362561
67.800000 -2.359136
67.850000 -2.365988
67.900000 -2.424228
67.950000 -2.492746
68.000000 -2.547560
68.050000 -2.616078
68.100000 -2.670892
68.150000 -2.667466
68.200000 -2.629782
68.250000 -2.581819
68.300000 -2.527005
68.350000 -2.458487
68.400000 -2.386543
68.450000 -2.324877
68.500000 -2.314599
68.550000 -2.355710
68.600000 -2.420802
68.650000 -2.485894
68.700000 -2.585245
68.750000 -2.681170
68.800000 -2.735984
68.850000 -2.773669
68.900000 -2.777094
68.950000 -2.708577
69.000000 -2.581819
69.050000 -2.455061
69.100000 -2.321452
69.150000 -2.187842
69.200000 -2.081639
69.250000 -2.006269
69.300000 -1.992565
69.350000 -2.064510
69.400000 -2.180990
69.450000 -2.287192
69.500000 -2.403673
69.550000 -2.547560
69.600000 -2.650337
69.650000 -2.677743
69.700000 -2.657188
69.750000 -2.622930
69.800000 -2.561263
69.850000 -2.444783
69.900000 -2.297470
69.950000 -2.160434
70.000000 -2.054231
70.050000 -1.948029
70.100000 -1.872659
70.150000 -1.865808
70.200000 -1.927474
70.250000 -2.037102
70.300000 -2.177563
70.350000 -2.328303
70.400000 -2.475617
70.450000 -2.633207
70.500000 -2.770243
70.550000 -2.828483
70.600000 -2.842186
70.650000 -2.842187
70.700000 -2.797650
70.750000 -2.698299
70.800000 -2.616078
70.850000 -2.540708
70.900000 -2.458487
70.950000 -2.413950
71.000000 -2.448209
71.050000 -2.513301
71.100000 -2.605800
71.150000 -2.742836
71.200000 -2.883297
71.250000 -2.965519
71.300000 -3.013481
71.350000 -3.054591
71.400000 -3.054592
71.450000 -2.965519
71.500000 -2.814779
71.550000 -2.667466
71.600000 -2.533856
71.650000 -2.413950
71.700000 -2.355710
71.750000 -2.362562
71.800000 -2.386543
71.850000 -2.424228
71.900000 -2.506450
71.950000 -2.598948
72.000000 -2.653763
72.050000 -2.653762
72.100000 -2.605800
72.150000 -2.530431
72.200000 -2.451635
72.250000 -2.348859
72.300000 -2.225526
72.350000 -2.157009
72.400000 -2.187842
72.450000 -2.273489
72.500000 -2.393395
72.550000 -2.598948
72.600000 -2.876446
72.650000 -3.160794
72.700000 -3.414310
72.750000 -3.626715
72.800000 -3.760325
72.850000 -3.791158
72.900000 -3.746621
72.950000 -3.619864
73.000000 -3.393755
73.050000 -3.119684
73.100000 -2.855890
73.150000 -2.622929
73.200000 -2.437931
73.250000 -2.328303
73.300000 -2.290618
73.350000 -2.311173
73.400000 -2.400246
73.450000 -2.547559
73.500000 -2.708577
73.550000 -2.866168
73.600000 -3.023758
73.650000 -3.160795
73.700000 -3.243016
73.750000 -3.277275
73.800000 -3.239589
73.850000 -3.147091
73.900000 -3.030610
73.950000 -2.900426
74.000000 -2.732558
74.050000 -2.585245
74.100000 -2.506449
74.150000 -2.465339
74.200000 -2.458486
74.250000 -2.499597
74.300000 -2.592097
74.350000 -2.735984
74.400000 -2.917556
74.450000 -3.078573
74.500000 -3.195053
74.550000 -3.304682
74.600000 -3.386903
74.650000 -3.383478
74.700000 -3.297830
74.750000 -3.184775
74.800000 -3.034037
74.850000 -2.859316
74.900000 -2.725706
74.950000 -2.643485
75.000000 -2.588670
75.050000 -2.571541
75.100000 -2.629781
75.150000 -2.770243
75.200000 -2.955241
75.250000 -3.143665
75.300000 -3.314959
75.350000 -3.455421
75.400000 -3.561624
75.450000 -3.626716
75.500000 -3.616437
75.550000 -3.541068
75.600000 -3.414310
75.650000 -3.249867
75.700000 -3.068296
75.750000 -2.900427
75.800000 -2.749687
75.850000 -2.626355
75.900000 -2.547560
75.950000 -2.489319
76.000000 -2.458487
76.050000 -2.465339
76.100000 -2.516726
76.150000 -2.564689
76.200000 -2.598948
76.250000 -2.612652
76.300000 -2.609226
76.350000 -2.595522
76.400000 -2.609226
76.450000 -2.636633
76.500000 -2.657189
76.550000 -2.674318
76.600000 -2.705151
76.650000 -2.749688
76.700000 -2.787372
76.750000 -2.818205
76.800000 -2.831908
76.850000 -2.831908
76.900000 -2.818206
76.950000 -2.783947
77.000000 -2.725706
77.050000 -2.657188
77.100000 -2.578393
77.150000 -2.499598
77.200000 -2.441358
77.250000 -2.424228
77.300000 -2.434506
77.350000 -2.458487
77.400000 -2.509875
77.450000 -2.588671
77.500000 -2.691447
77.550000 -2.790798
77.600000 -2.835335
77.650000 -2.835335
77.700000 -2.849038
77.750000 -2.852464
77.800000 -2.807928
77.850000 -2.780521
77.900000 -2.825057
77.950000 -2.890149
78.000000 -2.944963
78.050000 -3.054592
78.100000 -3.201905
78.150000 -3.294404
78.200000 -3.335514
78.250000 -3.366348
78.300000 -3.373200
78.350000 -3.328662
78.400000 -3.236164
78.450000 -3.099128
78.500000 -2.924408
78.550000 -2.749687
78.600000 -2.581819
78.650000 -2.417376
78.700000 -2.283767
78.750000 -2.198119
78.800000 -2.150157
78.850000 -2.129602
78.900000 -2.129601
78.950000 -2.146731
79.000000 -2.184416
79.050000 -2.235804
79.100000 -2.287192
79.150000 -2.331729
79.200000 -2.396820
79.250000 -2.479042
79.300000 -2.544134
79.350000 -2.609226
79.400000 -2.681170
79.450000 -2.742835
79.500000 -2.787373
79.550000 -2.811353
79.600000 -2.797650
79.650000 -2.739410
79.700000 -2.667466
79.750000 -2.581818
79.800000 -2.475616
79.850000 -2.362562
79.900000 -2.273489
79.950000 -2.232378
80.000000 -2.256359
80.050000 -2.324877
80.100000 -2.413951
80.150000 -2.544134
80.200000 -2.718854
80.250000 -2.890149
80.300000 -3.051166
80.350000 -3.215608
80.400000 -3.335515
80.450000 -3.383477
80.500000 -3.390329
80.550000 -3.345792
80.600000 -3.222460
80.650000 -3.061444
80.700000 -2.927834
80.750000 -2.790798
80.800000 -2.619503
80.850000 -2.465339
80.900000 -2.369413
80.950000 -2.297470
81.000000 -2.246081
81.050000 -2.235804
81.100000 -2.294044
81.150000 -2.400247
81.200000 -2.516727
81.250000 -2.650336
81.300000 -2.818205
81.350000 -2.962092
81.400000 -3.044314
81.450000 -3.095702
81.500000 -3.136813
81.550000 -3.123109
81.600000 -3.037462
81.650000 -2.920982
81.700000 -2.797650
81.750000 -2.670892
81.800000 -2.544134
81.850000 -2.437932
81.900000 -2.372839
81.950000 -2.355710
82.000000 -2.376265
82.050000 -2.437931
82.100000 -2.550986
82.150000 -2.688021
82.200000 -2.821631
82.250000 -2.934685
82.300000 -3.013481
82.350000 -3.040889
82.400000 -3.006629
82.450000 -2.917557
82.500000 -2.804502
82.550000 -2.681170
82.600000 -2.537282
82.650000 -2.376265
82.700000 -2.225526
82.750000 -2.115898
82.800000 -2.071361
82.850000 -2.074787
82.900000 -2.115898
82.950000 -2.208397
83.000000 -2.369414
83.050000 -2.537282
83.100000 -2.670892
83.150000 -2.787372
83.200000 -2.879871
83.250000 -2.893575
83.300000 -2.842186
83.350000 -2.770243
83.400000 -2.650337
83.450000 -2.499597
83.500000 -2.359136
83.550000 -2.194693
83.600000 -2.002844
83.650000 -1.879512
83.700000 -1.855530
83.750000 -1.869234
83.800000 -1.927474
83.850000 -2.064510
83.900000 -2.232378
83.950000 -2.417376
84.000000 -2.629782
84.050000 -2.814780
84.100000 -2.938112
84.150000 -3.044314
84.200000 -3.133387
84.250000 -3.140239
84.300000 -3.092277
84.350000 -3.040888
84.400000 -2.965519
84.450000 -2.869594
84.500000 -2.777094
84.550000 -2.688022
84.600000 -2.585244
84.650000 -2.496171
84.700000 -2.417376
84.750000 -2.338581
84.800000 -2.263211
84.850000 -2.187841
84.900000 -2.109046
84.950000 -2.050806
85.000000 -2.026824
85.050000 -2.006269
85.100000 -1.995992
85.150000 -2.040529
85.200000 -2.109046
85.250000 -2.177564
85.300000 -2.276915
85.350000 -2.407099
85.400000 -2.533857
85.450000 -2.650337
85.500000 -2.749688
85.550000 -2.814780
85.600000 -2.866168
85.650000 -2.903853
85.700000 -2.886723
85.750000 -2.845612
85.800000 -2.842186
85.850000 -2.838761
85.900000 -2.797650
85.950000 -2.759965
86.000000 -2.749688
86.050000 -2.701725
86.100000 -2.636633
86.150000 -2.598948
86.200000 -2.554411
86.250000 -2.475616
86.300000 -2.410524
86.350000 -2.365988
86.400000 -2.318026
86.450000 -2.283766
86.500000 -2.287192
86.550000 -2.297470
86.600000 -2.307748
86.650000 -2.335155
86.700000 -2.372839
86.750000 -2.420802
86.800000 -2.492745
86.850000 -2.574968
86.900000 -2.660615
86.950000 -2.746261
87.000000 -2.835335
87.050000 -2.907278
87.100000 -2.972371
87.150000 -3.030611
87.200000 -3.064869
87.250000 -3.075147
87.300000 -3.064870
87.350000 -3.040888
87.400000 -2.989499
87.450000 -2.897000
87.500000 -2.766817
87.550000 -2.650336
87.600000 -2.561263
87.650000 -2.455061
87.700000 -2.328303
87.750000 -2.232378
87.800000 -2.153582
87.850000 -2.047380
87.900000 -1.965158
87.950000 -1.951456
88.000000 -1.954881
88.050000 -1.965159
88.100000 -1.995992
88.150000 -2.026825
88.200000 -2.026825
88.250000 -2.040528
88.300000 -2.088491
88.350000 -2.133027
88.400000 -2.180990
88.450000 -2.239230
88.500000 -2.300896
88.550000 -2.365987
88.600000 -2.434505
88.650000 -2.465339
88.700000 -2.465338
88.750000 -2.475616
88.800000 -2.475616
88.850000 -2.427653
88.900000 -2.352284
88.950000 -2.276914
89.000000 -2.198119
89.050000 -2.109046
89.100000 -2.030250
89.150000 -1.982288
89.200000 -1.965159
89.250000 -2.019973
89.300000 -2.115898
89.350000 -2.225526
89.400000 -2.355711
89.450000 -2.509875
89.500000 -2.643485
89.550000 -2.735984
89.600000 -2.797650
89.650000 -2.821632
89.700000 -2.814779
89.750000 -2.794224
89.800000 -2.756539
89.850000 -2.691448
89.900000 -2.622930
89.950000 -2.588671
90.000000 -2.557838
90.050000 -2.520153
90.100000 -2.499598
90.150000 -2.489320
90.200000 -2.455061
90.250000 -2.403672
90.300000 -2.352285
90.350000 -2.287192
90.400000 -2.201545
90.450000 -2.129601
90.500000 -2.081639
90.550000 -2.054232
90.600000 -2.037102
90.650000 -2.040529
90.700000 -2.074787
90.750000 -2.143305
90.800000 -2.222101
90.850000 -2.287193
90.900000 -2.338581
90.950000 -2.365988
91.000000 -2.389969
91.050000 -2.417376
91.100000 -2.417376
91.150000 -2.355710
91.200000 -2.280340
91.250000 -2.228952
91.300000 -2.167286
91.350000 -2.081639
91.400000 -2.009695
91.450000 -1.978863
91.500000 -1.975436
91.550000 -2.002844
91.600000 -2.054232
91.650000 -2.119324
91.700000 -2.211823
91.750000 -2.321451
91.800000 -2.393395
91.850000 -2.413950
91.900000 -2.413950
91.950000 -2.417376
92.000000 -2.413950
92.050000 -2.386543
92.100000 -2.338580
92.150000 -2.307748
92.200000 -2.311173
92.250000 -2.348858
92.300000 -2.407099
92.350000 -2.496172
92.400000 -2.592096
92.450000 -2.674318
92.500000 -2.732558
92.550000 -2.753113
92.600000 -2.735984
92.650000 -2.677744
92.700000 -2.568115
92.750000 -2.427653
92.800000 -2.287193
92.850000 -2.174138
92.900000 -2.126176
92.950000 -2.150157
93.000000 -2.225527
93.050000 -2.335154
93.100000 -2.475616
93.150000 -2.633207
93.200000 -2.794224
93.250000 -2.944963
93.300000 -3.051166
93.350000 -3.102554
93.400000 -3.105980
93.450000 -3.064869
93.500000 -2.979222
93.550000 -2.866168
93.600000 -2.749688
93.650000 -2.633207
93.700000 -2.530430
93.750000 -2.441357
93.800000 -2.359136
93.850000 -2.307748
93.900000 -2.283766
93.950000 -2.256359
94.000000 -2.242656
94.050000 -2.263211
94.100000 -2.297470
94.150000 -2.345432
94.200000 -2.407098
94.250000 -2.472191
94.300000 -2.530431
94.350000 -2.595522
94.400000 -2.653763
94.450000 -2.667466
94.500000 -2.657188
94.550000 -2.629781
94.600000 -2.574967
94.650000 -2.496172
94.700000 -2.420802
94.750000 -2.321452
94.800000 -2.187841
94.850000 -2.064509
94.900000 -1.958307
94.950000 -1.889789
95.000000 -1.869234
95.050000 -1.886364
95.100000 -1.910344
95.150000 -1.975436
95.200000 -2.088491
95.250000 -2.201545
95.300000 -2.294045
95.350000 -2.386543
95.400000 -2.458487
95.450000 -2.513301
95.500000 -2.568115
95.550000 -2.602374
95.600000 -2.592096
95.650000 -2.547560
95.700000 -2.499598
95.750000 -2.437931
95.800000 -2.376266
95.850000 -2.331729
95.900000 -2.273488
95.950000 -2.211823
96.000000 -2.204971
96.050000 -2.232378
96.100000 -2.252933
96.150000 -2.290618
96.200000 -2.372839
96.250000 -2.448210
96.300000 -2.503023
96.350000 -2.564690
96.400000 -2.622929
96.450000 -2.667466
96.500000 -2.732558
96.550000 -2.818205
96.600000 -2.866167
96.650000 -2.893575
96.700000 -2.924408
96.750000 -2.941537
96.800000 -2.924408
96.850000 -2.910705
96.900000 -2.917557
96.950000 -2.924408
97.000000 -2.934685
97.050000 -2.927833
97.100000 -2.914130
97.150000 -2.948389
97.200000 -3.003204
97.250000 -3.013481
97.300000 -3.030611
97.350000 -3.112832
97.400000 -3.167647
97.450000 -3.160795
97.500000 -3.160794
97.550000 -3.160794
97.600000 -3.099128
97.650000 -2.989500
97.700000 -2.862742
97.750000 -2.701725
97.800000 -2.533857
97.850000 -2.383117
97.900000 -2.239230
97.950000 -2.115898
98.000000 -2.043954
98.050000 -2.002844
98.100000 -1.972010
98.150000 -1.989139
98.200000 -2.078213
98.250000 -2.180990
98.300000 -2.273489
98.350000 -2.396821
98.400000 -2.533857
98.450000 -2.653762
98.500000 -2.749688
98.550000 -2.842187
98.600000 -2.938112
98.650000 -2.999777
98.700000 -3.020333
98.750000 -3.013481
98.800000 -3.003203
98.850000 -2.989500
98.900000 -2.975797
98.950000 -2.958667
99.000000 -2.914131
99.050000 -2.859316
99.100000 -2.818205
99.150000 -2.780520
99.200000 -2.729132
99.250000 -2.688021
99.300000 -2.664040
99.350000 -2.650336
99.400000 -2.629782
99.450000 -2.616078
99.500000 -2.616078
99.550000 -2.622930
99.600000 -2.622929
99.650000 -2.598949
99.700000 -2.568115
99.750000 -2.544134
99.800000 -2.513301
99.850000 -2.472190
99.900000 -2.468764
99.950000 -2.509875
100.000000 -2.550986
100.050000 -2.568115
100.100000 -2.588671
100.150000 -2.622930
100.200000 -2.653762
100.250000 -2.677744
100.300000 -2.715429
100.350000 -2.763391
100.400000 -2.825057
100.450000 -2.893575
100.500000 -2.982648
100.550000 -3.061443
100.600000 -3.116257
100.650000 -3.184775
100.700000 -3.277275
100.750000 -3.359496
100.800000 -3.414310
100.850000 -3.434866
100.900000 -3.400606
100.950000 -3.321811
101.000000 -3.219035
101.050000 -3.064870
101.100000 -2.859316
101.150000 -2.667466
101.200000 -2.506449
101.250000 -2.345433
101.300000 -2.211823
101.350000 -2.187842
101.400000 -2.252934
101.450000 -2.338581
101.500000 -2.444783
101.550000 -2.602374
101.600000 -2.787372
101.650000 -2.938112
101.700000 -3.054591
101.750000 -3.164220
101.800000 -3.219034
101.850000 -3.167646
101.900000 -3.044314
101.950000 -2.855890
102.000000 -2.602374
102.050000 -2.321451
102.100000 -2.054231
102.150000 -1.814420
102.200000 -1.612292
102.250000 -1.464978
102.300000 -1.379332
102.350000 -1.365628
102.400000 -1.434146
102.450000 -1.560903
102.500000 -1.697940
102.550000 -1.855531
102.600000 -2.019973
102.650000 -2.146731
102.700000 -2.239230
102.750000 -2.314599
102.800000 -2.342006
102.850000 -2.311173
102.900000 -2.252933
102.950000 -2.157009
103.000000 -2.026825
103.050000 -1.879512
103.100000 -1.752753
103.150000 -1.656829
103.200000 -1.622570
103.250000 -1.646551
103.300000 -1.694514
103.350000 -1.773309
103.400000 -1.927473
103.450000 -2.133028
103.500000 -2.342006
103.550000 -2.547560
103.600000 -2.763391
103.650000 -2.944963
103.700000 -3.071721
103.750000 -3.147090
103.800000 -3.160795
103.850000 -3.109406
103.900000 -2.999777
103.950000 -2.842187
104.000000 -2.670892
104.050000 -2.516727
104.100000 -2.400247
104.150000 -2.307748
104.200000 -2.228952
104.250000 -2.184415
104.300000 -2.187841
104.350000 -2.235804
104.400000 -2.297470
104.450000 -2.355710
104.500000 -2.424228
104.550000 -2.499598
104.600000 -2.540708
104.650000 -2.554411
104.700000 -2.592096
104.750000 -2.640059
104.800000 -2.650337
104.850000 -2.667466
104.900000 -2.722280
104.950000 -2.759965
105.000000 -2.742835
105.050000 -2.715429
105.100000 -2.670892
105.150000 -2.595522
105.200000 -2.537282
105.250000 -2.485894
105.300000 -2.403672
105.350000 -2.331729
105.400000 -2.307747
105.450000 -2.273489
105.500000 -2.239230
105.550000 -2.242656
105.600000 -2.273488
105.650000 -2.311174
105.700000 -2.379692
105.750000 -2.468764
105.800000 -2.527005
105.850000 -2.540708
105.900000 -2.513301
105.950000 -2.444784
106.000000 -2.369413
106.050000 -2.307748
106.100000 -2.235804
106.150000 -2.163860
106.200000 -2.115898
106.250000 -2.085064
106.300000 -2.088490
106.350000 -2.139879
106.400000 -2.201545
106.450000 -2.232378
106.500000 -2.276915
106.550000 -2.345432
106.600000 -2.393395
106.650000 -2.393395
106.700000 -2.386543
106.750000 -2.389969
106.800000 -2.396821
106.850000 -2.372840
106.900000 -2.342006
106.950000 -2.328303
107.000000 -2.335155
107.050000 -2.345433
107.100000 -2.372840
107.150000 -2.410524
107.200000 -2.448209
107.250000 -2.472190
107.300000 -2.489320
107.350000 -2.485894
107.400000 -2.455061
107.450000 -2.417376
107.500000 -2.369414
107.550000 -2.297470
107.600000 -2.246082
107.650000 -2.218674
107.700000 -2.191267
107.750000 -2.167286
107.800000 -2.177563
107.850000 -2.218675
107.900000 -2.266637
107.950000 -2.297470
108.000000 -2.335155
108.050000 -2.359136
108.100000 -2.328303
108.150000 -2.276915
108.200000 -2.249507
108.250000 -2.204971
108.300000 -2.146731
108.350000 -2.133027
108.400000 -2.180990
108.450000 -2.235804
108.500000 -2.307748
108.550000 -2.413950
108.600000 -2.530431
108.650000 -2.636633
108.700000 -2.701725
108.750000 -2.708576
108.800000 -2.677744
108.850000 -2.616078
108.900000 -2.503024
108.950000 -2.342007
109.000000 -2.177564
109.050000 -2.019973
109.100000 -1.882937
109.150000 -1.824697
109.200000 -1.845253
109.250000 -1.896640
109.300000 -2.013121
109.350000 -2.215248
109.400000 -2.424228
109.450000 -2.605800
109.500000 -2.807928
109.550000 -3.006629
109.600000 -3.140239
109.650000 -3.212183
109.700000 -3.270423
109.750000 -3.335514
109.800000 -3.400607
109.850000 -3.441718
109.900000 -3.451995
109.950000 -3.469124
110.000000 -3.510236
110.050000 -3.527364
110.100000 -3.482828
110.150000 -3.424588
110.200000 -3.352645
110.250000 -3.205331
110.300000 -2.982648
110.350000 -2.742836
110.400000 -2.489320
110.450000 -2.242656
110.500000 -2.054231
110.550000 -1.944604
110.600000 -1.889789
110.650000 -1.893215
110.700000 -1.968585
110.750000 -2.095343
110.800000 -2.239230
110.850000 -2.393395
110.900000 -2.537282
110.950000 -2.636633
111.000000 -2.688022
111.050000 -2.691448
111.100000 -2.646911
111.150000 -2.571542
111.200000 -2.492746
111.250000 -2.410524
111.300000 -2.352285
111.350000 -2.355710
111.400000 -2.386544
111.450000 -2.451635
111.500000 -2.578393
111.550000 -2.746262
111.600000 -2.914130
111.650000 -3.088850
111.700000 -3.260145
111.750000 -3.362922
111.800000 -3.380051
111.850000 -3.338941
111.900000 -3.239589
111.950000 -3.081998
112.000000 -2.886723
112.050000 -2.653762
112.100000 -2.396820
112.150000 -2.170712
112.200000 -2.006269
112.250000 -1.852105
112.300000 -1.735624
112.350000 -1.691088
112.400000 -1.708217
112.450000 -1.749327
112.500000 -1.804141
112.550000 -1.882937
112.600000 -1.965159
112.650000 -2.040529
112.700000 -2.122750
112.750000 -2.180989
112.800000 -2.198119
112.850000 -2.201545
112.900000 -2.208397
112.950000 -2.194693
113.000000 -2.150157
113.050000 -2.105620
113.100000 -2.054232
113.150000 -1.982289
113.200000 -1.920622
113.250000 -1.886363
113.300000 -1.841827
113.350000 -1.807567
113.400000 -1.821271
113.450000 -1.838400
113.500000 -1.831549
113.550000 -1.834974
113.600000 -1.855530
113.650000 -1.852105
113.700000 -1.848679
113.750000 -1.879511
113.800000 -1.893215
113.850000 -1.862382
113.900000 -1.841827
113.950000 -1.848678
114.000000 -1.865808
114.050000 -1.903493
114.100000 -1.965158
114.150000 -2.026824
114.200000 -2.109046
114.250000 -2.198119
114.300000 -2.246082
114.350000 -2.263211
114.400000 -2.270063
114.450000 -2.246081
114.500000 -2.187842
114.550000 -2.157008
114.600000 -2.153582
114.650000 -2.115898
114.700000 -2.078213
114.750000 -2.095342
114.800000 -2.136453
114.850000 -2.163860
114.900000 -2.211822
114.950000 -2.294044
115.000000 -2.379691
115.050000 -2.448209
115.100000 -2.496171
115.150000 -2.482468
115.200000 -2.434505
115.250000 -2.376266
115.300000 -2.294044
115.350000 -2.191267
115.400000 -2.122749
115.450000 -2.081639
115.500000 -2.030250
115.550000 -1.992565
115.600000 -2.006270
115.650000 -2.047380
115.700000 -2.115898
115.750000 -2.215248
115.800000 -2.276915
115.850000 -2.300896
115.900000 -2.352284
115.950000 -2.400247
116.000000 -2.376265
116.050000 -2.338581
116.100000 -2.352284
116.150000 -2.383118
116.200000 -2.417376
116.250000 -2.492746
116.300000 -2.612652
116.350000 -2.749687
116.400000 -2.903853
116.450000 -3.064869
116.500000 -3.208757
116.550000 -3.342367
116.600000 -3.424588
116.650000 -3.414310
116.700000 -3.311534
116.750000 -3.167646
116.800000 -2.989500
116.850000 -2.749687
116.900000 -2.472190
116.950000 -2.225527
117.000000 -2.047380
117.050000 -1.927474
117.100000 -1.855530
117.150000 -1.852104
117.200000 -1.913771
117.250000 -2.013122
117.300000 -2.167286
117.350000 -2.335155
117.400000 -2.455061
117.450000 -2.537282
117.500000 -2.626355
117.550000 -2.670892
117.600000 -2.629782
117.650000 -2.561263
117.700000 -2.506449
117.750000 -2.448209
117.800000 -2.413950
117.850000 -2.451635
117.900000 -2.506449
117.950000 -2.544134
118.000000 -2.653763
118.050000 -2.838761
118.100000 -2.989500
118.150000 -3.095702
118.200000 -3.225886
118.250000 -3.332089
118.300000 -3.352644
118.350000 -3.342367
118.400000 -3.335515
118.450000 -3.273848
118.500000 -3.171072
118.550000 -3.088850
118.600000 -2.992926
118.650000 -2.876445
118.700000 -2.790798
118.750000 -2.718854
118.800000 -2.602374
118.850000 -2.482468
118.900000 -2.413950
118.950000 -2.342006
119.000000 -2.225526
119.050000 -2.122749
119.100000 -2.064510
119.150000 -2.019973
119.200000 -1.978862
119.250000 -1.985714
119.300000 -2.057657
119.350000 -2.157009
119.400000 -2.263211
119.450000 -2.376265
119.500000 -2.499598
119.550000 -2.660614
119.600000 -2.814780
119.650000 -2.914130
119.700000 -2.958667
119.750000 -2.975796
119.800000 -2.982648
119.850000 -2.951815
119.900000 -2.883298
119.950000 -2.807928
120.000000 -2.763391
120.050000 -2.739409
120.100000 -2.729132
120.150000 -2.739410
120.200000 -2.790798
120.250000 -2.866168
120.300000 -2.927834
120.350000 -2.968945
120.400000 -3.013481
120.450000 -3.058018
120.500000 -3.058018
120.550000 -3.006629
120.600000 -2.938112
120.650000 -2.831909
120.700000 -2.660614
120.750000 -2.472190
120.800000 -2.307748
120.850000 -2.157008
120.900000 -2.016547
120.950000 -1.913770
121.000000 -1.865808
121.050000 -1.845252
121.100000 -1.845252
121.150000 -1.882937
121.200000 -1.944603
121.250000 -2.013121
121.300000 -2.098768
121.350000 -2.194693
121.400000 -2.290619
121.450000 -2.355710
121.500000 -2.389969
121.550000 -2.427654
121.600000 -2.482468
121.650000 -2.503023
121.700000 -2.472190
121.750000 -2.431080
121.800000 -2.386543
121.850000 -2.314599
121.900000 -2.239230
121.950000 -2.167286
122.000000 -2.109046
122.050000 -2.078213
122.100000 -2.057658
122.150000 -2.061084
122.200000 -2.136453
122.250000 -2.287192
122.300000 -2.434506
122.350000 -2.574967
122.400000 -2.746261
122.450000 -2.920982
122.500000 -3.023759
122.550000 -3.071722
122.600000 -3.088851
122.650000 -3.034036
122.700000 -2.910704
122.750000 -2.746262
122.800000 -2.544134
122.850000 -2.324877
122.900000 -2.139879
122.950000 -2.006270
123.000000 -1.920622
123.050000 -1.917196
123.100000 -1.982289
123.150000 -2.061084
123.200000 -2.160434
123.250000 -2.304321
123.300000 -2.441357
123.350000 -2.544134
123.400000 -2.602374
123.450000 -2.612652
123.500000 -2.564690
123.550000 -2.496171
123.600000 -2.427654
123.650000 -2.335155
123.700000 -2.239230
123.750000 -2.191267
123.800000 -2.163860
123.850000 -2.160434
123.900000 -2.218675
123.950000 -2.338581
124.000000 -2.465338
124.050000 -2.605800
124.100000 -2.756540
124.150000 -2.862742
124.200000 -2.910705
124.250000 -2.958667
124.300000 -3.006629
124.350000 -3.027184
124.400000 -3.023758
124.450000 -3.016907
124.500000 -2.996351
124.550000 -2.975796
124.600000 -2.944963
124.650000 -2.910704
124.700000 -2.873019
124.750000 -2.825057
124.800000 -2.739409
124.850000 -2.640059
124.900000 -2.557837
124.950000 -2.465338
125.000000 -2.362561
125.050000 -2.276915
125.100000 -2.208397
125.150000 -2.129602
125.200000 -2.109046
125.250000 -2.150157
125.300000 -2.208397
125.350000 -2.276915
125.400000 -2.376265
125.450000 -2.468764
125.500000 -2.503024
125.550000 -2.496171
125.600000 -2.444783
125.650000 -2.338581
125.700000 -2.204971
125.750000 -2.074787
125.800000 -1.903493
125.850000 -1.708216
125.900000 -1.547200
125.950000 -1.444423
126.000000 -1.379331
126.050000 -1.358776
126.100000 -1.420443
126.150000 -1.540349
126.200000 -1.680809
126.250000 -1.865807
126.300000 -2.085065
126.350000 -2.280341
126.400000 -2.448209
126.450000 -2.612652
126.500000 -2.759965
126.550000 -2.825057
126.600000 -2.825058
126.650000 -2.794224
126.700000 -2.712003
126.750000 -2.578393
126.800000 -2.441358
126.850000 -2.294044
126.900000 -2.126175
126.950000 -1.989139
127.000000 -1.917196
127.050000 -1.838401
127.100000 -1.769883
127.150000 -1.790438
127.200000 -1.876086
127.250000 -1.958307
127.300000 -2.047380
127.350000 -2.150157
127.400000 -2.252933
127.450000 -2.348858
127.500000 -2.441357
127.550000 -2.503023
127.600000 -2.513301
127.650000 -2.468764
127.700000 -2.389969
127.750000 -2.297470
127.800000 -2.194693
127.850000 -2.081639
127.900000 -1.975436
127.950000 -1.906918
128.000000 -1.896641
128.050000 -1.937751
128.100000 -2.016547
128.150000 -2.129601
128.200000 -2.283766
128.250000 -2.448210
128.300000 -2.578393
128.350000 -2.664040
128.400000 -2.725707
128.450000 -2.742836
128.500000 -2.705151
128.550000 -2.636633
128.600000 -2.540708
128.650000 -2.431080
128.700000 -2.328303
128.750000 -2.249508
128.800000 -2.191268
128.850000 -2.157009
128.900000 -2.150156
128.950000 -2.163860
129.000000 -2.177564
129.050000 -2.153583
129.100000 -2.088490
129.150000 -2.013121
129.200000 -1.906919
129.250000 -1.749328
129.300000 -1.598588
129.350000 -1.509516
129.400000 -1.458127
129.450000 -1.444424
129.500000 -1.509515
129.550000 -1.629422
129.600000 -1.773309
129.650000 -1.968584
129.700000 -2.191268
129.750000 -2.396821
129.800000 -2.578393
129.850000 -2.735984
129.900000 -2.838761
129.950000 -2.924408
130.000000 -3.006629
130.050000 -3.027184
130.100000 -2.999777
130.150000 -2.989500
130.200000 -2.982648
130.250000 -2.962093
130.300000 -2.958666
130.350000 -2.975796
130.400000 -2.989500
130.450000 -2.999778
130.500000 -2.992925
130.550000 -2.938111
130.600000 -2.869593
130.650000 -2.818205
130.700000 -2.746262
130.750000 -2.643485
130.800000 -2.568115
130.850000 -2.509876
130.900000 -2.455061
130.950000 -2.403673
131.000000 -2.369414
131.050000 -2.331729
131.100000 -2.331729
131.150000 -2.365988
131.200000 -2.389969
131.250000 -2.379691
131.300000 -2.407099
131.350000 -2.455061
131.400000 -2.461913
131.450000 -2.444783
131.500000 -2.431080
131.550000 -2.413951
131.600000 -2.410524
131.650000 -2.420802
131.700000 -2.403672
131.750000 -2.386543
131.800000 -2.417376
131.850000 -2.468764
131.900000 -2.482468
131.950000 -2.516727
132.000000 -2.598948
132.050000 -2.653763
132.100000 -2.667466
132.150000 -2.708577
132.200000 -2.759966
132.250000 -2.777094
132.300000 -2.794224
132.350000 -2.811353
132.400000 -2.790799
132.450000 -2.753113
132.500000 -2.698299
132.550000 -2.616078
132.600000 -2.513301
132.650000 -2.427654
132.700000 -2.328303
132.750000 -2.208396
132.800000 -2.095342
132.850000 -1.978863
132.900000 -1.852105
132.950000 -1.752753
133.000000 -1.670532
133.050000 -1.571181
133.100000 -1.495812
133.150000 -1.488960
133.200000 -1.512941
133.250000 -1.560904
133.300000 -1.643124
133.350000 -1.745902
133.400000 -1.855530
133.450000 -1.968585
133.500000 -2.081639
133.550000 -2.204971
133.600000 -2.369413
133.650000 -2.527004
133.700000 -2.650337
133.750000 -2.763391
133.800000 -2.897000
133.850000 -3.020333
133.900000 -3.129961
133.950000 -3.239590
134.000000 -3.311534
134.050000 -3.345793
134.100000 -3.369774
134.150000 -3.342366
134.200000 -3.236164
134.250000 -3.078573
134.300000 -2.910704
134.350000 -2.735984
134.400000 -2.564690
134.450000 -2.393394
134.500000 -2.222100
134.550000 -2.098769
134.600000 -2.030250
134.650000 -1.965159
134.700000 -1.941178
134.750000 -1.999417
134.800000 -2.071362
134.850000 -2.115898
134.900000 -2.201545
134.950000 -2.321451
135.000000 -2.379692
135.050000 -2.393395
135.100000 -2.413950
135.150000 -2.451635
135.200000 -2.475616
135.250000 -2.448209
135.300000 -2.376266
135.350000 -2.331729
135.400000 -2.328303
135.450000 -2.290618
135.500000 -2.225526
135.550000 -2.222100
135.600000 -2.246082
135.650000 -2.211823
135.700000 -2.174138
135.750000 -2.174138
135.800000 -2.160435
135.850000 -2.139879
135.900000 -2.133028
135.950000 -2.139879
136.000000 -2.139879
136.050000 -2.150157
136.100000 -2.160434
136.150000 -2.153582
136.200000 -2.150157
136.250000 -2.146731
136.300000 -2.126176
136.350000 -2.078213
136.400000 -2.043954
136.450000 -2.002843
136.500000 -1.941178
136.550000 -1.858956
136.600000 -1.756179
136.650000 -1.680810
136.700000 -1.673958
136.750000 -1.701365
136.800000 -1.721920
136.850000 -1.780161
136.900000 -1.930899
136.950000 -2.115898
137.000000 -2.300896
137.050000 -2.506450
137.100000 -2.725707
137.150000 -2.920982
137.200000 -3.102554
137.250000 -3.246442
137.300000 -3.304681
137.350000 -3.273849
137.400000 -3.219034
137.450000 -3.116258
137.500000 -2.924408
137.550000 -2.729132
137.600000 -2.602374
137.650000 -2.506450
137.700000 -2.431079
137.750000 -2.427654
137.800000 -2.499598
137.850000 -2.622930
137.900000 -2.763391
137.950000 -2.910704
138.000000 -3.054592
138.050000 -3.171072
138.100000 -3.212182
138.150000 -3.181350
138.200000 -3.068296
138.250000 -2.876445
138.300000 -2.643485
138.350000 -2.400247
138.400000 -2.146731
138.450000 -1.937752
138.500000 -1.821271
138.550000 -1.742475
138.600000 -1.684235
138.650000 -1.708217
138.700000 -1.800716
138.750000 -1.872659
138.800000 -1.937752
138.850000 -2.030250
138.900000 -2.095343
138.950000 -2.115898
139.000000 -2.115898
139.050000 -2.078213
139.100000 -2.043954
139.150000 -2.057658
139.200000 -2.085064
139.250000 -2.081639
139.300000 -2.109046
139.350000 -2.187841
139.400000 -2.235804
139.450000 -2.232378
139.500000 -2.235804
139.550000 -2.232378
139.600000 -2.180990
139.650000 -2.109046
139.700000 -2.030250
139.750000 -1.968584
139.800000 -1.934326
139.850000 -1.937752
139.900000 -1.958306
139.950000 -2.002843
140.000000 -2.091916
140.050000 -2.211822
140.100000 -2.311174
140.150000 -2.379691
140.200000 -2.448209
140.250000 -2.527005
140.300000 -2.592096
140.350000 -2.626356
140.400000 -2.653762
140.450000 -2.684596
140.500000 -2.715429
140.550000 -2.729132
140.600000 -2.749687
140.650000 -2.766817
140.700000 -2.773669
140.750000 -2.770243
140.800000 -2.753113
140.850000 -2.712003
140.900000 -2.640059
140.950000 -2.561263
141.000000 -2.472190
141.050000 -2.355710
141.100000 -2.235804
141.150000 -2.122749
141.200000 -2.006270
141.250000 -1.906918
141.300000 -1.852105
141.350000 -1.804142
141.400000 -1.756179
141.450000 -1.756179
141.500000 -1.828123
141.550000 -1.920622
141.600000 -2.019973
141.650000 -2.139879
141.700000 -2.287192
141.750000 -2.427654
141.800000 -2.537282
141.850000 -2.636633
141.900000 -2.746262
141.950000 -2.814779
142.000000 -2.814779
142.050000 -2.787372
142.100000 -2.756539
142.150000 -2.670892
142.200000 -2.557838
142.250000 -2.455061
142.300000 -2.348859
142.350000 -2.218675
142.400000 -2.112472
142.450000 -2.026825
142.500000 -1.965159
142.550000 -1.961733
142.600000 -1.978862
142.650000 -1.975436
142.700000 -2.009696
142.750000 -2.109046
142.800000 -2.208397
142.850000 -2.287193
142.900000 -2.383118
142.950000 -2.472190
143.000000 -2.540708
143.050000 -2.616078
143.100000 -2.701725
143.150000 -2.756540
143.200000 -2.801076
143.250000 -2.849038
143.300000 -2.862742
143.350000 -2.845612
143.400000 -2.855890
143.450000 -2.869594
143.500000 -2.814779
143.550000 -2.725706
143.600000 -2.664040
143.650000 -2.595522
143.700000 -2.489320
143.750000 -2.413951
143.800000 -2.383117
143.850000 -2.348858
143.900000 -2.331729
143.950000 -2.365988
144.000000 -2.389969
144.050000 -2.389969
144.100000 -2.403673
144.150000 -2.424228
144.200000 -2.420802
144.250000 -2.410524
144.300000 -2.410525
144.350000 -2.424228
144.400000 -2.434506
144.450000 -2.448209
144.500000 -2.472191
144.550000 -2.527004
144.600000 -2.571542
144.650000 -2.602374
144.700000 -2.664041
144.750000 -2.759965
144.800000 -2.828483
144.850000 -2.869593
144.900000 -2.903853
144.950000 -2.924408
145.000000 -2.924408
145.050000 -2.903852
145.100000 -2.842187
145.150000 -2.763391
145.200000 -2.691448
145.250000 -2.605800
145.300000 -2.475616
145.350000 -2.352284
145.400000 -2.256359
145.450000 -2.157008
145.500000 -2.061084
145.550000 -1.999417
145.600000 -1.954881
145.650000 -1.920623
145.700000 -1.927474
145.750000 -1.961733
145.800000 -1.982288
145.850000 -2.006270
145.900000 -2.050806
145.950000 -2.095343
146.000000 -2.129602
146.050000 -2.153583
146.100000 -2.177564
146.150000 -2.194693
146.200000 -2.218675
146.250000 -2.259785
146.300000 -2.300896
146.350000 -2.335155
146.400000 -2.348858
146.450000 -2.342006
146.500000 -2.328303
146.550000 -2.311173
146.600000 -2.280341
146.650000 -2.232379
146.700000 -2.187841
146.750000 -2.146731
146.800000 -2.112472
146.850000 -2.074787
146.900000 -2.040528
146.950000 -2.030251
147.000000 -2.050806
147.050000 -2.071361
147.100000 -2.074788
147.150000 -2.085064
147.200000 -2.115897
147.250000 -2.119323
147.300000 -2.085064
147.350000 -2.061084
147.400000 -2.043955
147.450000 -1.999417
147.500000 -1.951455
147.550000 -1.944603
147.600000 -1.978862
147.650000 -2.006270
147.700000 -2.037103
147.750000 -2.119324
147.800000 -2.259785
147.850000 -2.383117
147.900000 -2.455061
147.950000 -2.544134
148.000000 -2.650337
148.050000 -2.684596
148.100000 -2.674318
148.150000 -2.681169
148.200000 -2.646911
148.250000 -2.557838
148.300000 -2.468765
148.350000 -2.362561
148.400000 -2.201545
148.450000 -2.043954
148.500000 -1.920622
148.550000 -1.780161
148.600000 -1.632847
148.650000 -1.574607
148.700000 -1.598589
148.750000 -1.667106
148.800000 -1.773308
148.850000 -1.924048
148.900000 -2.112472
148.950000 -2.342006
149.000000 -2.585245
149.050000 -2.797649
149.100000 -2.968944
149.150000 -3.099128
149.200000 -3.150516
149.250000 -3.119684
149.300000 -3.054592
149.350000 -2.972370
149.400000 -2.838760
149.450000 -2.664040
149.500000 -2.492746
149.550000 -2.362562
149.600000 -2.266637
149.650000 -2.198119
149.700000 -2.187841
149.750000 -2.215249
149.800000 -2.256359
149.850000 -2.314599
149.900000 -2.407098
149.950000 -2.547560
150.000000 -2.670892
150.050000 -2.763391
150.100000 -2.852464
150.150000 -2.951815
150.200000 -2.992925
150.250000 -2.975796
150.300000 -2.927833
150.350000 -2.873020
150.400000 -2.773669
150.450000 -2.643485
150.500000 -2.523578
150.550000 -2.417376
150.600000 -2.283766
150.650000 -2.136453
150.700000 -2.013121
150.750000 -1.937752
150.800000 -1.879511
150.850000 -1.817846
150.900000 -1.797290
150.950000 -1.862382
151.000000 -1.968585
151.050000 -2.067935
151.100000 -2.170712
151.150000 -2.290618
151.200000 -2.393394
151.250000 -2.485894
151.300000 -2.568116
151.350000 -2.598948
151.400000 -2.578393
151.450000 -2.547560
151.500000 -2.509875
151.550000 -2.461912
151.600000 -2.400247
151.650000 -2.335155
151.700000 -2.331728
151.750000 -2.407098
151.800000 -2.496172
151.850000 -2.571541
151.900000 -2.694873
151.950000 -2.862742
152.000000 -2.999777
152.050000 -3.099129
152.100000 -3.177924
152.150000 -3.181350
152.200000 -3.109406
152.250000 -3.010055
152.300000 -2.893575
152.350000 -2.746261
152.400000 -2.588670
152.450000 -2.444783
152.500000 -2.321452
152.550000 -2.252933
152.600000 -2.232378
152.650000 -2.232378
152.700000 -2.283766
152.750000 -2.389969
152.800000 -2.513301
152.850000 -2.636634
152.900000 -2.780520
152.950000 -2.910704
153.000000 -3.003204
153.050000 -3.078573
153.100000 -3.123109
153.150000 -3.109406
153.200000 -3.068295
153.250000 -3.030611
153.300000 -2.968945
153.350000 -2.866168
153.400000 -2.732558
153.450000 -2.598949
153.500000 -2.479043
153.550000 -2.365988
153.600000 -2.273489
153.650000 -2.204971
153.700000 -2.157008
153.750000 -2.115898
153.800000 -2.088490
153.850000 -2.091917
153.900000 -2.122750
153.950000 -2.163861
154.000000 -2.211823
154.050000 -2.270062
154.100000 -2.342007
154.150000 -2.420802
154.200000 -2.485894
154.250000 -2.523579
154.300000 -2.533857
154.350000 -2.533857
154.400000 -2.554411
154.450000 -2.557837
154.500000 -2.540708
154.550000 -2.550986
154.600000 -2.592096
154.650000 -2.609225
154.700000 -2.619503
154.750000 -2.646911
154.800000 -2.670892
154.850000 -2.657189
154.900000 -2.646910
154.950000 -2.643485
155.000000 -2.619504
155.050000 -2.574967
155.100000 -2.520152
155.150000 -2.458487
155.200000 -2.389969
155.250000 -2.328303
155.300000 -2.290618
155.350000 -2.290619
155.400000 -2.297470
155.450000 -2.297470
155.500000 -2.294044
155.550000 -2.314599
155.600000 -2.328303
155.650000 -2.311173
155.700000 -2.283766
155.750000 -2.276914
155.800000 -2.283766
155.850000 -2.280340
155.900000 -2.280341
155.950000 -2.307748
156.000000 -2.362562
156.050000 -2.431080
156.100000 -2.468765
156.150000 -2.475617
156.200000 -2.472190
156.250000 -2.475616
156.300000 -2.434505
156.350000 -2.335155
156.400000 -2.194693
156.450000 -2.050806
156.500000 -1.920622
156.550000 -1.807568
156.600000 -1.704791
156.650000 -1.615718
156.700000 -1.571181
156.750000 -1.574608
156.800000 -1.639700
156.850000 -1.766457
156.900000 -1.927474
156.950000 -2.095343
157.000000 -2.263211
157.050000 -2.448209
157.100000 -2.633207
157.150000 -2.794224
157.200000 -2.914130
157.250000 -3.010055
157.300000 -3.081999
157.350000 -3.112832
157.400000 -3.099129
157.450000 -3.054591
157.500000 -2.999778
157.550000 -2.951815
157.600000 -2.907279
157.650000 -2.845613
157.700000 -2.790798
157.750000 -2.770243
157.800000 -2.759965
157.850000 -2.739410
157.900000 -2.725706
157.950000 -2.753113
158.000000 -2.797650
158.050000 -2.814779
158.100000 -2.842187
158.150000 -2.897001
158.200000 -2.951815
158.250000 -2.968944
158.300000 -2.986074
158.350000 -3.016907
158.400000 -3.020333
158.450000 -2.965519
158.500000 -2.890149
158.550000 -2.818206
158.600000 -2.718854
158.650000 -2.561263
158.700000 -2.389969
158.750000 -2.215249
158.800000 -2.033677
158.850000 -1.858956
158.900000 -1.735624
158.950000 -1.653403
159.000000 -1.598588
159.050000 -1.564329
159.100000 -1.554052
159.150000 -1.591737
159.200000 -1.649977
159.250000 -1.708217
159.300000 -1.773309
159.350000 -1.862382
159.400000 -1.972010
159.450000 -2.088491
159.500000 -2.228952
159.550000 -2.400247
159.600000 -2.574967
159.650000 -2.735984
159.700000 -2.883298
159.750000 -3.006629
159.800000 -3.109406
159.850000 -3.177923
159.900000 -3.195054
159.950000 -3.174498
160.000000 -3.123109
160.050000 -3.037462
160.100000 -2.914130
160.150000 -2.777095
160.200000 -2.626355
160.250000 -2.485894
160.300000 -2.383117
160.350000 -2.331729
160.400000 -2.304322
160.450000 -2.276915
160.500000 -2.266637
160.550000 -2.314600
160.600000 -2.403673
160.650000 -2.496172
160.700000 -2.588671
160.750000 -2.712002
160.800000 -2.828483
160.850000 -2.907279
160.900000 -2.958667
160.950000 -2.996352
161.000000 -2.989500
161.050000 -2.927834
161.100000 -2.828483
161.150000 -2.684595
161.200000 -2.485894
161.250000 -2.283766
161.300000 -2.105620
161.350000 -1.937751
161.400000 -1.773308
161.450000 -1.687662
161.500000 -1.680810
161.550000 -1.701365
161.600000 -1.728772
161.650000 -1.787013
161.700000 -1.865808
161.750000 -1.941177
161.800000 -2.002844
161.850000 -2.033676
161.900000 -2.043954
161.950000 -2.047380
162.000000 -2.047380
162.050000 -2.037103
162.100000 -2.037102
162.150000 -2.081639
162.200000 -2.184416
162.250000 -2.311174
162.300000 -2.444783
162.350000 -2.592097
162.400000 -2.742836
162.450000 -2.869593
162.500000 -2.958667
162.550000 -3.030610
162.600000 -3.081998
162.650000 -3.075147
162.700000 -3.010055
162.750000 -2.944963
162.800000 -2.893575
162.850000 -2.842186
162.900000 -2.787372
162.950000 -2.732558
163.000000 -2.701725
163.050000 -2.691448
163.100000 -2.677744
163.150000 -2.650337
163.200000 -2.622930
163.250000 -2.595522
163.300000 -2.540708
163.350000 -2.472190
163.400000 -2.424227
163.450000 -2.365988
163.500000 -2.266637
163.550000 -2.204971
163.600000 -2.198119
163.650000 -2.177563
163.700000 -2.139879
163.750000 -2.163860
163.800000 -2.218675
163.850000 -2.228952
163.900000 -2.228952
163.950000 -2.273489
164.000000 -2.294044
164.050000 -2.266637
164.100000 -2.232378
164.150000 -2.208397
164.200000 -2.184415
164.250000 -2.153582
164.300000 -2.139879
164.350000 -2.160435
164.400000 -2.222100
164.450000 -2.297469
164.500000 -2.355710
164.550000 -2.403672
164.600000 -2.472190
164.650000 -2.540709
164.700000 -2.588671
164.750000 -2.612652
164.800000 -2.602374
164.850000 -2.550986
164.900000 -2.496171
164.950000 -2.441358
165.000000 -2.345432
165.050000 -2.218675
165.100000 -2.122749
165.150000 -2.050806
165.200000 -1.985714
165.250000 -1.917196
165.300000 -1.876085
165.350000 -1.858956
165.400000 -1.893215
165.450000 -1.972010
165.500000 -2.061083
165.550000 -2.157009
165.600000 -2.294044
165.650000 -2.458487
165.700000 -2.619504
165.750000 -2.773669
165.800000 -2.910704
165.850000 -3.003203
165.900000 -3.061444
165.950000 -3.095703
166.000000 -3.071722
166.050000 -2.972370
166.100000 -2.828483
166.150000 -2.698299
166.200000 -2.574967
166.250000 -2.441358
166.300000 -2.297470
166.350000 -2.163861
166.400000 -2.067935
166.450000 -2.006269
166.500000 -1.965159
166.550000 -1.954881
166.600000 -1.968584
166.650000 -1.995992
166.700000 -2.030251
166.750000 -2.098769
166.800000 -2.180990
166.850000 -2.242656
166.900000 -2.297470
166.950000 -2.376266
167.000000 -2.437932
167.050000 -2.479042
167.100000 -2.513301
167.150000 -2.544134
167.200000 -2.544134
167.250000 -2.509875
167.300000 -2.451635
167.350000 -2.379692
167.400000 -2.304322
167.450000 -2.225527
167.500000 -2.136453
167.550000 -2.043954
167.600000 -1.975436
167.650000 -1.893215
167.700000 -1.831549
167.750000 -1.848678
167.800000 -1.913770
167.850000 -1.965158
167.900000 -2.033676
167.950000 -2.157008
168.000000 -2.270063
168.050000 -2.359136
168.100000 -2.472190
168.150000 -2.574967
168.200000 -2.622930
168.250000 -2.650337
168.300000 -2.681170
168.350000 -2.677744
168.400000 -2.643485
168.450000 -2.609226
168.500000 -2.568115
168.550000 -2.509875
168.600000 -2.441358
168.650000 -2.355710
168.700000 -2.276915
168.750000 -2.259785
168.800000 -2.283766
168.850000 -2.290618
168.900000 -2.297470
168.950000 -2.342007
169.000000 -2.413950
169.050000 -2.465339
169.100000 -2.492746
169.150000 -2.475617
169.200000 -2.413951
169.250000 -2.324877
169.300000 -2.194694
169.350000 -2.054232
169.400000 -1.930900
169.450000 -1.831549
169.500000 -1.739050
169.550000 -1.701365
169.600000 -1.725347
169.650000 -1.793864
169.700000 -1.917196
169.750000 -2.091917
169.800000 -2.252933
169.850000 -2.376266
169.900000 -2.492746
169.950000 -2.588671
170.000000 -2.609226
170.050000 -2.578393
170.100000 -2.540708
170.150000 -2.485894
170.200000 -2.427653
170.250000 -2.393395
170.300000 -2.383118
170.350000 -2.413950
170.400000 -2.496172
170.450000 -2.564689
170.500000 -2.622930
170.550000 -2.725706
170.600000 -2.845612
170.650000 -2.900427
170.700000 -2.920982
170.750000 -2.955241
170.800000 -2.992925
170.850000 -2.986074
170.900000 -2.948389
170.950000 -2.886723
171.000000 -2.814779
171.050000 -2.708577
171.100000 -2.544134
171.150000 -2.352284
171.200000 -2.170712
171.250000 -1.995992
171.300000 -1.807568
171.350000 -1.660255
171.400000 -1.567755
171.450000 -1.499238
171.500000 -1.478682
171.550000 -1.540348
171.600000 -1.636273
171.650000 -1.739050
171.700000 -1.876086
171.750000 -2.026824
171.800000 -2.133027
171.850000 -2.198119
171.900000 -2.242655
171.950000 -2.259785
172.000000 -2.270062
172.050000 -2.273489
172.100000 -2.252934
172.150000 -2.228952
172.200000 -2.235804
172.250000 -2.273489
172.300000 -2.328303
172.350000 -2.407099
172.400000 -2.485894
172.450000 -2.533856
172.500000 -2.544134
172.550000 -2.527004
172.600000 -2.468765
172.650000 -2.386544
172.700000 -2.314600
172.750000 -2.242656
172.800000 -2.180990
172.850000 -2.153582
172.900000 -2.167286
172.950000 -2.208397
173.000000 -2.280341
173.050000 -2.386543
173.100000 -2.489319
173.150000 -2.605800
173.200000 -2.715428
173.250000 -2.790798
173.300000 -2.811353
173.350000 -2.818206
173.400000 -2.801076
173.450000 -2.742835
173.500000 -2.657188
173.550000 -2.592097
173.600000 -2.537282
173.650000 -2.475617
173.700000 -2.424228
173.750000 -2.393395
173.800000 -2.386543
173.850000 -2.383117
173.900000 -2.379691
173.950000 -2.396821
174.000000 -2.424228
174.050000 -2.451635
174.100000 -2.468764
174.150000 -2.492745
174.200000 -2.509875
174.250000 -2.520153
174.300000 -2.544134
174.350000 -2.585245
174.400000 -2.616078
174.450000 -2.622930
174.500000 -2.595522
174.550000 -2.564690
174.600000 -2.537283
174.650000 -2.516727
174.700000 -2.479043
174.750000 -2.448209
174.800000 -2.441357
174.850000 -2.441357
174.900000 -2.424228
174.950000 -2.400247
175.000000 -2.369414
175.050000 -2.324877
175.100000 -2.290619
175.150000 -2.270063
175.200000 -2.259785
175.250000 -2.263211
175.300000 -2.280341
175.350000 -2.283767
175.400000 -2.294044
175.450000 -2.328303
175.500000 -2.331729
175.550000 -2.307748
175.600000 -2.307748
175.650000 -2.318026
175.700000 -2.283766
175.750000 -2.239230
175.800000 -2.204971
175.850000 -2.146731
175.900000 -2.102194
175.950000 -2.091916
176.000000 -2.081639
176.050000 -2.067935
176.100000 -2.091916
176.150000 -2.146731
176.200000 -2.184416
176.250000 -2.246082
176.300000 -2.311174
176.350000 -2.318026
176.400000 -2.270063
176.450000 -2.235804
176.500000 -2.177564
176.550000 -2.081639
176.600000 -1.995992
176.650000 -1.906918
176.700000 -1.838401
176.750000 -1.845252
176.800000 -1.893215
176.850000 -1.910344
176.900000 -1.958307
176.950000 -2.112472
177.000000 -2.287193
177.050000 -2.420802
177.100000 -2.554412
177.150000 -2.694873
177.200000 -2.773669
177.250000 -2.773668
177.300000 -2.712002
177.350000 -2.588670
177.400000 -2.420802
177.450000 -2.228953
177.500000 -2.016547
177.550000 -1.834974
177.600000 -1.701365
177.650000 -1.598588
177.700000 -1.536923
177.750000 -1.536922
177.800000 -1.602014
177.850000 -1.708217
177.900000 -1.838400
177.950000 -1.951455
178.000000 -2.023399
178.050000 -2.061083
178.100000 -2.067935
178.150000 -2.019973
178.200000 -1.941178
178.250000 -1.855530
178.300000 -1.745902
178.350000 -1.629421
178.400000 -1.554052
178.450000 -1.506089
178.500000 -1.464979
178.550000 -1.464979
178.600000 -1.543774
178.650000 -1.663680
178.700000 -1.790438
178.750000 -1.927473
178.800000 -2.081639
178.850000 -2.228952
178.900000 -2.359136
178.950000 -2.458487
179.000000 -2.554412
179.050000 -2.643485
179.100000 -2.705151
179.150000 -2.742836
179.200000 -2.766817
179.250000 -2.749687
179.300000 -2.684595
179.350000 -2.605800
179.400000 -2.537282
179.450000 -2.434506
179.500000 -2.318026
179.550000 -2.239230
179.600000 -2.198119
179.650000 -2.157008
179.700000 -2.133027
179.750000 -2.129601
179.800000 -2.119324
179.850000 -2.126176
179.900000 -2.163861
179.950000 -2.194693
180.000000 -2.204971
180.050000 -2.204971
180.100000 -2.211823
180.150000 -2.218675
180.200000 -2.232378
180.250000 -2.242656
180.300000 -2.283767
180.350000 -2.389969
180.400000 -2.516727
180.450000 -2.609226
180.500000 -2.722281
180.550000 -2.862742
180.600000 -2.972370
180.650000 -3.027185
180.700000 -3.071721
180.750000 -3.081999
180.800000 -3.044314
180.850000 -2.975796
180.900000 -2.876445
180.950000 -2.735984
181.000000 -2.605800
181.050000 -2.492746
181.100000 -2.369414
181.150000 -2.239230
181.200000 -2.153583
181.250000 -2.105620
181.300000 -2.095342
181.350000 -2.136453
181.400000 -2.211823
181.450000 -2.294044
181.500000 -2.396820
181.550000 -2.503024
181.600000 -2.598948
181.650000 -2.684595
181.700000 -2.759965
181.750000 -2.811353
181.800000 -2.842187
181.850000 -2.859316
181.900000 -2.862742
181.950000 -2.845612
182.000000 -2.831909
182.050000 -2.828483
182.100000 -2.859316
182.150000 -2.917557
182.200000 -2.979222
182.250000 -3.037462
182.300000 -3.102554
182.350000 -3.160794
182.400000 -3.205331
182.450000 -3.232738
182.500000 -3.239590
182.550000 -3.215609
182.600000 -3.167646
182.650000 -3.095703
182.700000 -2.986074
182.750000 -2.855890
182.800000 -2.746261
182.850000 -2.657188
182.900000 -2.574967
182.950000 -2.506449
183.000000 -2.461913
183.050000 -2.441357
183.100000 -2.444783
183.150000 -2.444783
183.200000 -2.424228
183.250000 -2.396820
183.300000 -2.386544
183.350000 -2.376265
183.400000 -2.359136
183.450000 -2.324877
183.500000 -2.297470
183.550000 -2.304322
183.600000 -2.324877
183.650000 -2.328303
183.700000 -2.342006
183.750000 -2.386543
183.800000 -2.417376
183.850000 -2.434506
183.900000 -2.465339
183.950000 -2.499598
184.000000 -2.509875
184.050000 -2.509875
184.100000 -2.523579
184.150000 -2.540708
184.200000 -2.578392
184.250000 -2.650336
184.300000 -2.712003
184.350000 -2.753113
184.400000 -2.801076
184.450000 -2.821631
184.500000 -2.753113
184.550000 -2.626355
184.600000 -2.461913
184.650000 -2.235804
184.700000 -1.972011
184.750000 -1.721920
184.800000 -1.499238
184.850000 -1.338220
184.900000 -1.297110
184.950000 -1.365628
185.000000 -1.502663
185.050000 -1.739050
185.100000 -2.067935
185.150000 -2.424228
185.200000 -2.780521
185.250000 -3.112831
185.300000 -3.356071
185.350000 -3.479402
185.400000 -3.523939
185.450000 -3.469124
185.500000 -3.325237
185.550000 -3.143665
185.600000 -2.927834
185.650000 -2.650337
185.700000 -2.383118
185.750000 -2.177564
185.800000 -1.995992
185.850000 -1.848678
185.900000 -1.797290
185.950000 -1.790438
186.000000 -1.787012
186.050000 -1.821271
186.100000 -1.886363
186.150000 -1.948029
186.200000 -2.050806
186.250000 -2.177564
186.300000 -2.276915
186.350000 -2.383117
186.400000 -2.485894
186.450000 -2.509875
186.500000 -2.479042
186.550000 -2.475616
186.600000 -2.431080
186.650000 -2.335154
186.700000 -2.276914
186.750000 -2.242656
186.800000 -2.184416
186.850000 -2.204971
186.900000 -2.328303
186.950000 -2.461913
187.000000 -2.616078
187.050000 -2.831909
187.100000 -3.027185
187.150000 -3.174498
187.200000 -3.352644
187.250000 -3.489679
187.300000 -3.493105
187.350000 -3.469125
187.400000 -3.462273
187.450000 -3.373200
187.500000 -3.201905
187.550000 -3.034037
187.600000 -2.852464
187.650000 -2.650337
187.700000 -2.499598
187.750000 -2.407099
187.800000 -2.328303
187.850000 -2.283767
187.900000 -2.263212
187.950000 -2.246082
188.000000 -2.276915
188.050000 -2.338581
188.100000 -2.355711
188.150000 -2.338580
188.200000 -2.355711
188.250000 -2.369413
188.300000 -2.348858
188.350000 -2.335155
188.400000 -2.318025
188.450000 -2.239230
188.500000 -2.153583
188.550000 -2.078213
188.600000 -1.985714
188.650000 -1.893215
188.700000 -1.848678
188.750000 -1.821271
188.800000 -1.790438
188.850000 -1.793864
