fit_time[ns] Functional_fit[mV] Thermal_fit[mV]
3.600000 19.655158 18.617320
3.650000 19.331185 18.213937
3.700000 18.987220 17.819108
3.750000 18.622038 17.432643
3.800000 18.235169 17.054357
3.850000 17.826894 16.684068
3.900000 17.398227 16.321599
3.950000 16.950883 15.966776
4.000000 16.487220 15.619430
4.050000 16.010175 15.279397
4.100000 15.523179 14.946516
4.150000 15.030063 14.620629
4.200000 14.534957 14.301582
4.250000 14.042180 13.989226
4.300000 13.556123 13.683413
4.350000 13.081143 13.384002
4.400000 12.621442 13.090852
4.450000 12.180966 12.803826
4.500000 11.763304 12.522791
4.550000 11.371596 12.247617
4.600000 11.008456 11.978176
4.650000 10.675910 11.714344
4.700000 10.375342 11.456000
4.750000 10.107469 11.203025
4.800000 9.872319 10.955302
4.850000 9.669237 10.712719
4.900000 9.496901 10.475164
4.950000 9.353363 10.242530
5.000000 9.236094 10.014709
5.050000 9.142053 9.791600
5.100000 9.067762 9.573101
5.150000 9.009399 9.359113
5.200000 8.962886 9.149540
5.250000 8.923998 8.944286
5.300000 8.888461 8.743261
5.350000 8.852063 8.546373
5.400000 8.810750 8.353535
5.450000 8.760729 8.164660
5.500000 8.698555 7.979664
5.550000 8.621212 7.798464
5.600000 8.526185 7.620981
5.650000 8.411515 7.447134
5.700000 8.275841 7.276848
5.750000 8.118428 7.110047
5.800000 7.939178 6.946657
5.850000 7.738624 6.786606
5.900000 7.517911 6.629823
5.950000 7.278762 6.476241
6.000000 7.023424 6.325791
6.050000 6.754610 6.178407
6.100000 6.475425 6.034026
6.150000 6.189280 5.892583
6.200000 5.899810 5.754018
6.250000 5.610771 5.618270
6.300000 5.325951 5.485280
6.350000 5.049070 5.354991
6.400000 4.783688 5.227345
6.450000 4.533112 5.102288
6.500000 4.300322 4.979766
6.550000 4.087890 4.859725
6.600000 3.897922 4.742115
6.650000 3.732006 4.626884
6.700000 3.591180 4.513984
6.750000 3.475901 4.403365
6.800000 3.386046 4.294980
6.850000 3.320913 4.188783
6.900000 3.279245 4.084728
6.950000 3.259263 3.982772
7.000000 3.258713 3.882871
7.050000 3.274931 3.784981
7.100000 3.304902 3.689063
7.150000 3.345347 3.595074
7.200000 3.392798 3.502975
7.250000 3.443691 3.412727
7.300000 3.494451 3.324293
7.350000 3.541583 3.237634
7.400000 3.581755 3.152714
7.450000 3.611882 3.069497
7.500000 3.629196 2.987948
7.550000 3.631317 2.908034
7.600000 3.616302 2.829720
7.650000 3.582695 2.752974
7.700000 3.529555 2.677764
7.750000 3.456473 2.604057
7.800000 3.363581 2.531824
7.850000 3.251543 2.461035
7.900000 3.121529 2.391658
7.950000 2.975185 2.323667
8.000000 2.814586 2.257032
8.050000 2.642180 2.191726
8.100000 2.460721 2.127722
8.150000 2.273201 2.064994
8.200000 2.082770 2.003514
8.250000 1.892656 1.943258
8.300000 1.706084 1.884202
8.350000 1.526191 1.826320
8.400000 1.355955 1.769588
8.450000 1.198114 1.713984
8.500000 1.055104 1.659485
8.550000 0.928997 1.606068
8.600000 0.821456 1.553711
8.650000 0.733690 1.502392
8.700000 0.666432 1.452092
8.750000 0.619923 1.402788
8.800000 0.593909 1.354461
8.850000 0.587652 1.307092
8.900000 0.599949 1.260660
8.950000 0.629169 1.215147
9.000000 0.673296 1.170535
9.050000 0.729979 1.126805
9.100000 0.796598 1.083939
9.150000 0.870326 1.041921
9.200000 0.948206 1.000732
9.250000 1.027221 0.960357
9.300000 1.104371 0.920778
9.350000 1.176750 0.881981
9.400000 1.241613 0.843948
9.450000 1.296444 0.806666
9.500000 1.339019 0.770118
9.550000 1.367456 0.734290
9.600000 1.380260 0.699168
9.650000 1.376356 0.664737
9.700000 1.355113 0.630984
9.750000 1.316355 0.597895
9.800000 1.260361 0.565456
9.850000 1.187855 0.533656
9.900000 1.099982 0.502480
9.950000 0.998278 0.471917
10.000000 0.884627 0.441954
10.050000 0.761210 0.412579
10.100000 0.630448 0.383781
10.150000 0.494942 0.355547
10.200000 0.357401 0.327868
10.250000 0.220578 0.300731
10.300000 0.087199 0.274126
10.350000 -0.040105 0.248042
10.400000 -0.158865 0.222470
10.450000 -0.266831 0.197398
10.500000 -0.362029 0.172816
10.550000 -0.442810 0.148716
10.600000 -0.507882 0.125087
10.650000 -0.556349 0.101921
10.700000 -0.587721 0.079207
10.750000 -0.601930 0.056937
10.800000 -0.599324 0.035102
10.850000 -0.580659 0.013694
10.900000 -0.547073 -0.007296
10.950000 -0.500057 -0.027877
11.000000 -0.441415 -0.048056
11.050000 -0.373215 -0.067841
11.100000 -0.297738 -0.087240
11.150000 -0.217417 -0.106261
11.200000 -0.134776 -0.124912
11.250000 -0.052366 -0.143198
11.300000 0.027295 -0.161129
11.350000 0.101791 -0.178711
11.400000 0.168863 -0.195950
11.450000 0.226464 -0.212853
11.500000 0.272809 -0.229428
11.550000 0.306416 -0.245680
11.600000 0.326145 -0.261616
11.650000 0.331215 -0.277243
11.700000 0.321230 -0.292565
11.750000 0.296176 -0.307590
11.800000 0.256427 -0.322323
11.850000 0.202726 -0.336770
11.900000 0.136165 -0.350936
11.950000 0.058155 -0.364828
12.000000 -0.029611 -0.378449
12.050000 -0.125203 -0.391807
12.100000 -0.226508 -0.404905
12.150000 -0.331279 -0.417749
12.200000 -0.437196 -0.430345
12.250000 -0.541922 -0.442696
12.300000 -0.643165 -0.454808
12.350000 -0.738731 -0.466685
12.400000 -0.826580 -0.478332
12.450000 -0.904878 -0.489754
12.500000 -0.972038 -0.500955
12.550000 -1.026756 -0.511939
12.600000 -1.068049 -0.522710
12.650000 -1.095267 -0.533273
12.700000 -1.108114 -0.543632
12.750000 -1.106650 -0.553790
12.800000 -1.091286 -0.563752
12.850000 -1.062772 -0.573522
12.900000 -1.022175 -0.583103
12.950000 -0.970850 -0.592499
13.000000 -0.910404 -0.601713
13.050000 -0.842653 -0.610749
13.100000 -0.769578 -0.619611
13.150000 -0.693268 -0.628302
13.200000 -0.615876 -0.636826
13.250000 -0.539557 -0.645185
13.300000 -0.466416 -0.653382
13.350000 -0.398460 -0.661422
13.400000 -0.337544 -0.669307
13.450000 -0.285330 -0.677039
13.500000 -0.243242 -0.684623
13.550000 -0.212438 -0.692061
13.600000 -0.193781 -0.699355
13.650000 -0.187818 -0.706509
13.700000 -0.194775 -0.713525
13.750000 -0.214545 -0.720406
13.800000 -0.246703 -0.727155
13.850000 -0.290513 -0.733774
13.900000 -0.344950 -0.740266
13.950000 -0.408733 -0.746632
14.000000 -0.480350 -0.752877
14.050000 -0.558106 -0.759001
14.100000 -0.640165 -0.765008
14.150000 -0.724592 -0.770899
14.200000 -0.809409 -0.776677
14.250000 -0.892642 -0.782344
14.300000 -0.972368 -0.787902
14.350000 -1.046766 -0.793354
14.400000 -1.114162 -0.798701
14.450000 -1.173065 -0.803945
14.500000 -1.222208 -0.809088
14.550000 -1.260574 -0.814133
14.600000 -1.287423 -0.819081
14.650000 -1.302305 -0.823935
14.700000 -1.305069 -0.828695
14.750000 -1.295868 -0.833364
14.800000 -1.275148 -0.837943
14.850000 -1.243637 -0.842435
14.900000 -1.202325 -0.846841
14.950000 -1.152435 -0.851162
15.000000 -1.095392 -0.855401
15.050000 -1.032787 -0.859558
15.100000 -0.966333 -0.863636
15.150000 -0.897824 -0.867635
15.200000 -0.829086 -0.871559
15.250000 -0.761938 -0.875407
15.300000 -0.698138 -0.879181
15.350000 -0.639347 -0.882883
15.400000 -0.587083 -0.886515
15.450000 -0.542689 -0.890077
15.500000 -0.507296 -0.893571
15.550000 -0.481801 -0.896998
15.600000 -0.466845 -0.900360
15.650000 -0.462798 -0.903657
15.700000 -0.469754 -0.906892
15.750000 -0.487528 -0.910064
15.800000 -0.515668 -0.913177
15.850000 -0.553463 -0.916229
15.900000 -0.599966 -0.919224
15.950000 -0.654019 -0.922161
16.000000 -0.714285 -0.925042
16.050000 -0.779279 -0.927868
16.100000 -0.847412 -0.930641
16.150000 -0.917027 -0.933360
16.200000 -0.986442 -0.936027
16.250000 -1.053993 -0.938644
16.300000 -1.118075 -0.941211
16.350000 -1.177182 -0.943729
16.400000 -1.229944 -0.946199
16.450000 -1.275158 -0.948622
16.500000 -1.311820 -0.950998
16.550000 -1.339145 -0.953330
16.600000 -1.356587 -0.955617
16.650000 -1.363851 -0.957860
16.700000 -1.360897 -0.960061
16.750000 -1.347938 -0.962219
16.800000 -1.325435 -0.964337
16.850000 -1.294084 -0.966415
16.900000 -1.254791 -0.968452
16.950000 -1.208656 -0.970452
17.000000 -1.156936 -0.972413
17.050000 -1.101020 -0.974336
17.100000 -1.042385 -0.976224
17.150000 -0.982566 -0.978075
17.200000 -0.923112 -0.979891
17.250000 -0.865550 -0.981673
17.300000 -0.811345 -0.983420
17.350000 -0.761868 -0.985135
17.400000 -0.718356 -0.986817
17.450000 -0.681889 -0.988467
17.500000 -0.653360 -0.990085
17.550000 -0.633456 -0.991673
17.600000 -0.622642 -0.993231
17.650000 -0.621152 -0.994759
17.700000 -0.628983 -0.996258
17.750000 -0.645901 -0.997729
17.800000 -0.671445 -0.999172
17.850000 -0.704942 -1.000587
17.900000 -0.745525 -1.001976
17.950000 -0.792157 -1.003338
18.000000 -0.843659 -1.004675
18.050000 -0.898738 -1.005986
18.100000 -0.956022 -1.007272
18.150000 -1.014096 -1.008534
18.200000 -1.071535 -1.009771
18.250000 -1.126942 -1.010986
18.300000 -1.178981 -1.012177
18.350000 -1.226411 -1.013346
18.400000 -1.268117 -1.014493
18.450000 -1.303133 -1.015618
18.500000 -1.330669 -1.016721
18.550000 -1.350128 -1.017804
18.600000 -1.361119 -1.018866
18.650000 -1.363464 -1.019908
18.700000 -1.357203 -1.020931
18.750000 -1.342589 -1.021934
18.800000 -1.320082 -1.022918
18.850000 -1.290334 -1.023883
18.900000 -1.254172 -1.024831
18.950000 -1.212575 -1.025760
19.000000 -1.166652 -1.026672
19.050000 -1.117606 -1.027566
19.100000 -1.066710 -1.028443
19.150000 -1.015273 -1.029304
19.200000 -0.964605 -1.030149
19.250000 -0.915984 -1.030978
19.300000 -0.870630 -1.031791
19.350000 -0.829666 -1.032588
19.400000 -0.794099 -1.033371
19.450000 -0.764793 -1.034139
19.500000 -0.742445 -1.034892
19.550000 -0.727574 -1.035631
19.600000 -0.720509 -1.036356
19.650000 -0.721378 -1.037067
19.700000 -0.730113 -1.037765
19.750000 -0.746448 -1.038450
19.800000 -0.769928 -1.039122
19.850000 -0.799926 -1.039781
19.900000 -0.835654 -1.040428
19.950000 -0.876190 -1.041062
20.000000 -0.920499 -1.041685
20.050000 -0.967457 -1.042296
20.100000 -1.015887 -1.042895
20.150000 -1.064582 -1.043483
20.200000 -1.112340 -1.044060
20.250000 -1.157990 -1.044626
20.300000 -1.200426 -1.045181
20.350000 -1.238627 -1.045726
20.400000 -1.271691 -1.046261
20.450000 -1.298847 -1.046785
20.500000 -1.319481 -1.047300
20.550000 -1.333143 -1.047805
20.600000 -1.339564 -1.048300
20.650000 -1.338656 -1.048786
20.700000 -1.330515 -1.049263
20.750000 -1.315416 -1.049731
20.800000 -1.293806 -1.050190
20.850000 -1.266290 -1.050640
20.900000 -1.233614 -1.051082
20.950000 -1.196650 -1.051516
21.000000 -1.156365 -1.051942
21.050000 -1.113803 -1.052359
21.100000 -1.070058 -1.052769
21.150000 -1.026240 -1.053171
21.200000 -0.983454 -1.053565
21.250000 -0.942769 -1.053952
21.300000 -0.905194 -1.054332
21.350000 -0.871649 -1.054704
21.400000 -0.842949 -1.055070
21.450000 -0.819778 -1.055428
21.500000 -0.802678 -1.055780
21.550000 -0.792035 -1.056125
21.600000 -0.788068 -1.056464
21.650000 -0.790830 -1.056796
21.700000 -0.800204 -1.057123
21.750000 -0.815910 -1.057443
21.800000 -0.837512 -1.057757
21.850000 -0.864428 -1.058065
21.900000 -0.895951 -1.058367
21.950000 -0.931263 -1.058664
22.000000 -0.969458 -1.058955
22.050000 -1.009567 -1.059240
22.100000 -1.050579 -1.059520
22.150000 -1.091471 -1.059795
22.200000 -1.131230 -1.060065
22.250000 -1.168879 -1.060330
22.300000 -1.203503 -1.060590
22.350000 -1.234270 -1.060845
22.400000 -1.260449 -1.061095
22.450000 -1.281431 -1.061340
22.500000 -1.296743 -1.061581
22.550000 -1.306056 -1.061817
22.600000 -1.309192 -1.062049
22.650000 -1.306130 -1.062276
22.700000 -1.297005 -1.062500
22.750000 -1.282099 -1.062719
22.800000 -1.261839 -1.062934
22.850000 -1.236780 -1.063144
22.900000 -1.207593 -1.063351
22.950000 -1.175046 -1.063554
23.000000 -1.139984 -1.063754
23.050000 -1.103309 -1.063949
23.100000 -1.065954 -1.064141
23.150000 -1.028862 -1.064329
23.200000 -0.992961 -1.064514
23.250000 -0.959143 -1.064695
23.300000 -0.928239 -1.064873
23.350000 -0.901000 -1.065048
23.400000 -0.878081 -1.065219
23.450000 -0.860021 -1.065387
23.500000 -0.847236 -1.065552
23.550000 -0.840005 -1.065714
23.600000 -0.838467 -1.065872
23.650000 -0.842616 -1.066028
23.700000 -0.852305 -1.066181
23.750000 -0.867251 -1.066331
23.800000 -0.887041 -1.066478
23.850000 -0.911143 -1.066623
23.900000 -0.938925 -1.066765
23.950000 -0.969666 -1.066904
24.000000 -1.002576 -1.067040
24.050000 -1.036821 -1.067174
24.100000 -1.071538 -1.067305
24.150000 -1.105860 -1.067434
24.200000 -1.138935 -1.067561
24.250000 -1.169953 -1.067685
24.300000 -1.198159 -1.067807
24.350000 -1.222876 -1.067927
24.400000 -1.243518 -1.068044
24.450000 -1.259608 -1.068159
24.500000 -1.270784 -1.068272
24.550000 -1.276810 -1.068383
24.600000 -1.277583 -1.068492
24.650000 -1.273130 -1.068599
24.700000 -1.263606 -1.068703
24.750000 -1.249296 -1.068806
24.800000 -1.230598 -1.068907
24.850000 -1.208019 -1.069006
24.900000 -1.182156 -1.069103
24.950000 -1.153685 -1.069199
25.000000 -1.123341 -1.069292
25.050000 -1.091899 -1.069384
25.100000 -1.060155 -1.069474
25.150000 -1.028907 -1.069563
25.200000 -0.998932 -1.069649
25.250000 -0.970970 -1.069734
25.300000 -0.945705 -1.069818
25.350000 -0.923748 -1.069900
25.400000 -0.905620 -1.069980
25.450000 -0.891744 -1.070059
25.500000 -0.882434 -1.070137
25.550000 -0.877886 -1.070213
25.600000 -0.878176 -1.070288
25.650000 -0.883258 -1.070361
25.700000 -0.892967 -1.070433
25.750000 -0.907024 -1.070503
25.800000 -0.925045 -1.070572
25.850000 -0.946548 -1.070640
25.900000 -0.970969 -1.070707
25.950000 -0.997676 -1.070772
26.000000 -1.025985 -1.070836
26.050000 -1.055177 -1.070899
26.100000 -1.084519 -1.070961
26.150000 -1.113278 -1.071022
26.200000 -1.140743 -1.071081
26.250000 -1.166240 -1.071140
26.300000 -1.189150 -1.071197
26.350000 -1.208926 -1.071253
26.400000 -1.225100 -1.071309
26.450000 -1.237300 -1.071363
26.500000 -1.245256 -1.071416
26.550000 -1.248807 -1.071468
26.600000 -1.247900 -1.071519
26.650000 -1.242598 -1.071570
26.700000 -1.233071 -1.071619
26.750000 -1.219592 -1.071667
26.800000 -1.202532 -1.071715
26.850000 -1.182348 -1.071761
26.900000 -1.159571 -1.071807
26.950000 -1.134792 -1.071852
27.000000 -1.108647 -1.071896
27.050000 -1.081802 -1.071939
27.100000 -1.054933 -1.071982
27.150000 -1.028712 -1.072023
27.200000 -1.003790 -1.072064
27.250000 -0.980779 -1.072104
27.300000 -0.960239 -1.072144
27.350000 -0.942661 -1.072182
27.400000 -0.928463 -1.072220
27.450000 -0.917971 -1.072257
27.500000 -0.911416 -1.072294
27.550000 -0.908931 -1.072330
27.600000 -0.910546 -1.072365
27.650000 -0.916185 -1.072399
27.700000 -0.925677 -1.072433
27.750000 -0.938753 -1.072466
27.800000 -0.955058 -1.072499
27.850000 -0.974158 -1.072531
27.900000 -0.995554 -1.072562
27.950000 -1.018695 -1.072593
28.000000 -1.042989 -1.072623
28.050000 -1.067820 -1.072653
28.100000 -1.092565 -1.072682
28.150000 -1.116608 -1.072711
28.200000 -1.139355 -1.072739
28.250000 -1.160250 -1.072766
28.300000 -1.178787 -1.072793
28.350000 -1.194525 -1.072820
28.400000 -1.207093 -1.072846
28.450000 -1.216206 -1.072871
28.500000 -1.221665 -1.072897
28.550000 -1.223364 -1.072921
28.600000 -1.221295 -1.072945
28.650000 -1.215539 -1.072969
28.700000 -1.206272 -1.072992
28.750000 -1.193754 -1.073015
28.800000 -1.178327 -1.073037
28.850000 -1.160400 -1.073059
28.900000 -1.140441 -1.073081
28.950000 -1.118966 -1.073102
29.000000 -1.096525 -1.073123
29.050000 -1.073686 -1.073143
29.100000 -1.051023 -1.073163
29.150000 -1.029101 -1.073183
29.200000 -1.008461 -1.073202
29.250000 -0.989608 -1.073221
29.300000 -0.972999 -1.073240
29.350000 -0.959030 -1.073258
29.400000 -0.948028 -1.073276
29.450000 -0.940243 -1.073293
29.500000 -0.935845 -1.073311
29.550000 -0.934914 -1.073328
29.600000 -0.937445 -1.073344
29.650000 -0.943348 -1.073360
29.700000 -0.952446 -1.073376
29.750000 -0.964488 -1.073392
29.800000 -0.979147 -1.073408
29.850000 -0.996038 -1.073423
29.900000 -1.014719 -1.073437
29.950000 -1.034711 -1.073452
30.000000 -1.055504 -1.073466
30.050000 -1.076572 -1.073480
30.100000 -1.097388 -1.073494
30.150000 -1.117434 -1.073508
30.200000 -1.136217 -1.073521
30.250000 -1.153279 -1.073534
30.300000 -1.168209 -1.073547
30.350000 -1.180651 -1.073559
30.400000 -1.190317 -1.073571
30.450000 -1.196988 -1.073583
30.500000 -1.200523 -1.073595
30.550000 -1.200860 -1.073607
30.600000 -1.198019 -1.073618
30.650000 -1.192095 -1.073630
30.700000 -1.183263 -1.073641
30.750000 -1.171769 -1.073651
30.800000 -1.157920 -1.073662
30.850000 -1.142084 -1.073672
30.900000 -1.124671 -1.073682
30.950000 -1.106130 -1.073692
31.000000 -1.086933 -1.073702
31.050000 -1.067566 -1.073712
31.100000 -1.048512 -1.073721
31.150000 -1.030247 -1.073731
31.200000 -1.013218 -1.073740
31.250000 -0.997841 -1.073749
31.300000 -0.984487 -1.073758
31.350000 -0.973472 -1.073766
31.400000 -0.965052 -1.073775
31.450000 -0.959416 -1.073783
31.500000 -0.956681 -1.073791
31.550000 -0.956892 -1.073799
31.600000 -0.960019 -1.073807
31.650000 -0.965961 -1.073815
31.700000 -0.974545 -1.073822
31.750000 -0.985536 -1.073830
31.800000 -0.998640 -1.073837
31.850000 -1.013511 -1.073844
31.900000 -1.029765 -1.073851
31.950000 -1.046985 -1.073858
32.000000 -1.064732 -1.073865
32.050000 -1.082559 -1.073871
32.100000 -1.100021 -1.073878
32.150000 -1.116686 -1.073884
32.200000 -1.132143 -1.073890
32.250000 -1.146019 -1.073897
32.300000 -1.157978 -1.073903
32.350000 -1.167739 -1.073909
32.400000 -1.175078 -1.073914
32.450000 -1.179829 -1.073920
32.500000 -1.181898 -1.073926
32.550000 -1.181254 -1.073931
32.600000 -1.177937 -1.073937
32.650000 -1.172051 -1.073942
32.700000 -1.163765 -1.073947
32.750000 -1.153306 -1.073952
32.800000 -1.140953 -1.073957
32.850000 -1.127030 -1.073962
32.900000 -1.111899 -1.073967
32.950000 -1.095946 -1.073972
33.000000 -1.079577 -1.073976
33.050000 -1.063204 -1.073981
33.100000 -1.047236 -1.073985
33.150000 -1.032069 -1.073990
33.200000 -1.018074 -1.073994
33.250000 -1.005591 -1.073998
33.300000 -0.994919 -1.074003
33.350000 -0.986310 -1.074007
33.400000 -0.979962 -1.074011
33.450000 -0.976013 -1.074015
33.500000 -0.974544 -1.074018
33.550000 -0.975570 -1.074022
33.600000 -0.979045 -1.074026
33.650000 -0.984862 -1.074030
33.700000 -0.992856 -1.074033
33.750000 -1.002810 -1.074037
33.800000 -1.014459 -1.074040
33.850000 -1.027499 -1.074043
33.900000 -1.041592 -1.074047
33.950000 -1.056378 -1.074050
34.000000 -1.071482 -1.074053
34.050000 -1.086525 -1.074056
34.100000 -1.101132 -1.074059
34.150000 -1.114941 -1.074063
34.200000 -1.127615 -1.074065
34.250000 -1.138848 -1.074068
34.300000 -1.148370 -1.074071
34.350000 -1.155958 -1.074074
34.400000 -1.161439 -1.074077
34.450000 -1.164694 -1.074080
34.500000 -1.165660 -1.074082
34.550000 -1.164332 -1.074085
34.600000 -1.160763 -1.074087
34.650000 -1.155059 -1.074090
34.700000 -1.147382 -1.074092
34.750000 -1.137939 -1.074095
34.800000 -1.126981 -1.074097
34.850000 -1.114794 -1.074099
34.900000 -1.101692 -1.074102
34.950000 -1.088010 -1.074104
35.000000 -1.074095 -1.074106
35.050000 -1.060296 -1.074108
35.100000 -1.046957 -1.074110
35.150000 -1.034405 -1.074113
35.200000 -1.022950 -1.074115
35.250000 -1.012866 -1.074117
35.300000 -1.004396 -1.074119
35.350000 -0.997736 -1.074121
35.400000 -0.993038 -1.074122
35.450000 -0.990403 -1.074124
35.500000 -0.989879 -1.074126
35.550000 -0.991463 -1.074128
35.600000 -0.995098 -1.074130
35.650000 -1.000674 -1.074131
35.700000 -1.008038 -1.074133
35.750000 -1.016991 -1.074135
35.800000 -1.027295 -1.074136
35.850000 -1.038684 -1.074138
35.900000 -1.050862 -1.074140
35.950000 -1.063520 -1.074141
36.000000 -1.076339 -1.074143
36.050000 -1.088995 -1.074144
36.100000 -1.101176 -1.074146
36.150000 -1.112582 -1.074147
36.200000 -1.122932 -1.074148
36.250000 -1.131980 -1.074150
36.300000 -1.139508 -1.074151
36.350000 -1.145343 -1.074153
36.400000 -1.149352 -1.074154
36.450000 -1.151450 -1.074155
36.500000 -1.151602 -1.074156
36.550000 -1.149819 -1.074158
36.600000 -1.146163 -1.074159
36.650000 -1.140740 -1.074160
36.700000 -1.133699 -1.074161
36.750000 -1.125231 -1.074162
36.800000 -1.115559 -1.074163
36.850000 -1.104934 -1.074165
36.900000 -1.093629 -1.074166
36.950000 -1.081932 -1.074167
37.000000 -1.070138 -1.074168
37.050000 -1.058543 -1.074169
37.100000 -1.047435 -1.074170
37.150000 -1.037086 -1.074171
37.200000 -1.027748 -1.074172
37.250000 -1.019647 -1.074173
37.300000 -1.012975 -1.074174
37.350000 -1.007885 -1.074175
37.400000 -1.004493 -1.074176
37.450000 -1.002867 -1.074176
37.500000 -1.003036 -1.074177
37.550000 -1.004979 -1.074178
37.600000 -1.008633 -1.074179
37.650000 -1.013892 -1.074180
37.700000 -1.020613 -1.074181
37.750000 -1.028615 -1.074181
37.800000 -1.037688 -1.074182
37.850000 -1.047597 -1.074183
37.900000 -1.058087 -1.074184
37.950000 -1.068891 -1.074184
38.000000 -1.079738 -1.074185
38.050000 -1.090356 -1.074186
38.100000 -1.100482 -1.074187
38.150000 -1.109868 -1.074187
38.200000 -1.118285 -1.074188
38.250000 -1.125531 -1.074189
38.300000 -1.131436 -1.074189
38.350000 -1.135863 -1.074190
38.400000 -1.138713 -1.074190
38.450000 -1.139929 -1.074191
38.500000 -1.139494 -1.074192
38.550000 -1.137433 -1.074192
38.600000 -1.133810 -1.074193
38.650000 -1.128729 -1.074193
38.700000 -1.122329 -1.074194
38.750000 -1.114781 -1.074194
38.800000 -1.106282 -1.074195
38.850000 -1.097053 -1.074196
38.900000 -1.087330 -1.074196
38.950000 -1.077360 -1.074197
39.000000 -1.067394 -1.074197
39.050000 -1.057681 -1.074198
39.100000 -1.048460 -1.074198
39.150000 -1.039959 -1.074198
39.200000 -1.032383 -1.074199
39.250000 -1.025914 -1.074199
39.300000 -1.020703 -1.074200
39.350000 -1.016872 -1.074200
39.400000 -1.014503 -1.074201
39.450000 -1.013644 -1.074201
39.500000 -1.014303 -1.074202
39.550000 -1.016453 -1.074202
39.600000 -1.020026 -1.074202
39.650000 -1.024921 -1.074203
39.700000 -1.031006 -1.074203
39.750000 -1.038119 -1.074204
39.800000 -1.046073 -1.074204
39.850000 -1.054664 -1.074204
39.900000 -1.063671 -1.074205
39.950000 -1.072866 -1.074205
40.000000 -1.082018 -1.074205
40.050000 -1.090898 -1.074206
40.100000 -1.099289 -1.074206
40.150000 -1.106983 -1.074206
40.200000 -1.113796 -1.074207
40.250000 -1.119564 -1.074207
40.300000 -1.124151 -1.074207
40.350000 -1.127454 -1.074208
40.400000 -1.129400 -1.074208
40.450000 -1.129953 -1.074208
40.500000 -1.129109 -1.074208
40.550000 -1.126902 -1.074209
40.600000 -1.123398 -1.074209
40.650000 -1.118695 -1.074209
40.700000 -1.112921 -1.074209
40.750000 -1.106229 -1.074210
40.800000 -1.098793 -1.074210
40.850000 -1.090805 -1.074210
40.900000 -1.082469 -1.074210
40.950000 -1.073996 -1.074211
41.000000 -1.065600 -1.074211
41.050000 -1.057487 -1.074211
41.100000 -1.049860 -1.074211
41.150000 -1.042904 -1.074212
41.200000 -1.036787 -1.074212
41.250000 -1.031655 -1.074212
41.300000 -1.027629 -1.074212
41.350000 -1.024798 -1.074213
41.400000 -1.023224 -1.074213
41.450000 -1.022936 -1.074213
41.500000 -1.023931 -1.074213
41.550000 -1.026172 -1.074213
41.600000 -1.029594 -1.074213
41.650000 -1.034101 -1.074214
41.700000 -1.039572 -1.074214
41.750000 -1.045862 -1.074214
41.800000 -1.052808 -1.074214
41.850000 -1.060230 -1.074214
41.900000 -1.067940 -1.074215
41.950000 -1.075742 -1.074215
42.000000 -1.083442 -1.074215
42.050000 -1.090847 -1.074215
42.100000 -1.097775 -1.074215
42.150000 -1.104058 -1.074215
42.200000 -1.109543 -1.074216
42.250000 -1.114101 -1.074216
42.300000 -1.117626 -1.074216
42.350000 -1.120038 -1.074216
42.400000 -1.121286 -1.074216
42.450000 -1.121348 -1.074216
42.500000 -1.120234 -1.074216
42.550000 -1.117980 -1.074217
42.600000 -1.114653 -1.074217
42.650000 -1.110344 -1.074217
42.700000 -1.105169 -1.074217
42.750000 -1.099264 -1.074217
42.800000 -1.092783 -1.074217
42.850000 -1.085893 -1.074217
42.900000 -1.078768 -1.074217
42.950000 -1.071589 -1.074217
43.000000 -1.064536 -1.074218
43.050000 -1.057782 -1.074218
43.100000 -1.051495 -1.074218
43.150000 -1.045827 -1.074218
43.200000 -1.040915 -1.074218
43.250000 -1.036876 -1.074218
43.300000 -1.033801 -1.074218
43.350000 -1.031762 -1.074218
43.400000 -1.030799 -1.074218
43.450000 -1.030928 -1.074219
43.500000 -1.032136 -1.074219
43.550000 -1.034385 -1.074219
43.600000 -1.037609 -1.074219
43.650000 -1.041720 -1.074219
43.700000 -1.046609 -1.074219
43.750000 -1.052146 -1.074219
43.800000 -1.058188 -1.074219
43.850000 -1.064580 -1.074219
43.900000 -1.071159 -1.074219
43.950000 -1.077760 -1.074219
44.000000 -1.084218 -1.074219
44.050000 -1.090373 -1.074220
44.100000 -1.096073 -1.074220
44.150000 -1.101181 -1.074220
44.200000 -1.105573 -1.074220
44.250000 -1.109146 -1.074220
44.300000 -1.111817 -1.074220
44.350000 -1.113528 -1.074220
44.400000 -1.114243 -1.074220
44.450000 -1.113954 -1.074220
44.500000 -1.112675 -1.074220
44.550000 -1.110446 -1.074220
44.600000 -1.107332 -1.074220
44.650000 -1.103418 -1.074220
44.700000 -1.098807 -1.074220
44.750000 -1.093620 -1.074220
44.800000 -1.087993 -1.074221
44.850000 -1.082068 -1.074221
44.900000 -1.075997 -1.074221
44.950000 -1.069932 -1.074221
45.000000 -1.064025 -1.074221
45.050000 -1.058420 -1.074221
45.100000 -1.053257 -1.074221
45.150000 -1.048661 -1.074221
45.200000 -1.044740 -1.074221
45.250000 -1.041588 -1.074221
45.300000 -1.039276 -1.074221
45.350000 -1.037856 -1.074221
45.400000 -1.037356 -1.074221
45.450000 -1.037780 -1.074221
45.500000 -1.039110 -1.074221
45.550000 -1.041305 -1.074221
45.600000 -1.044304 -1.074221
45.650000 -1.048025 -1.074221
45.700000 -1.052368 -1.074221
45.750000 -1.057221 -1.074221
45.800000 -1.062458 -1.074221
45.850000 -1.067946 -1.074222
45.900000 -1.073544 -1.074222
45.950000 -1.079112 -1.074222
46.000000 -1.084513 -1.074222
46.050000 -1.089611 -1.074222
46.100000 -1.094283 -1.074222
46.150000 -1.098416 -1.074222
46.200000 -1.101910 -1.074222
46.250000 -1.104684 -1.074222
46.300000 -1.106675 -1.074222
46.350000 -1.107839 -1.074222
46.400000 -1.108154 -1.074222
46.450000 -1.107619 -1.074222
46.500000 -1.106256 -1.074222
46.550000 -1.104104 -1.074222
46.600000 -1.101224 -1.074222
46.650000 -1.097694 -1.074222
46.700000 -1.093607 -1.074222
46.750000 -1.089071 -1.074222
46.800000 -1.084202 -1.074222
46.850000 -1.079124 -1.074222
46.900000 -1.073965 -1.074222
46.950000 -1.068856 -1.074222
47.000000 -1.063924 -1.074222
47.050000 -1.059289 -1.074222
47.100000 -1.055066 -1.074222
47.150000 -1.051356 -1.074222
47.200000 -1.048248 -1.074222
47.250000 -1.045814 -1.074222
47.300000 -1.044109 -1.074222
47.350000 -1.043170 -1.074222
47.400000 -1.043014 -1.074222
47.450000 -1.043638 -1.074222
47.500000 -1.045020 -1.074222
47.550000 -1.047120 -1.074223
47.600000 -1.049879 -1.074223
47.650000 -1.053223 -1.074223
47.700000 -1.057063 -1.074223
47.750000 -1.061299 -1.074223
47.800000 -1.065823 -1.074223
47.850000 -1.070519 -1.074223
47.900000 -1.075269 -1.074223
47.950000 -1.079953 -1.074223
48.000000 -1.084454 -1.074223
48.050000 -1.088663 -1.074223
48.100000 -1.092477 -1.074223
48.150000 -1.095803 -1.074223
48.200000 -1.098563 -1.074223
48.250000 -1.100693 -1.074223
48.300000 -1.102144 -1.074223
48.350000 -1.102886 -1.074223
48.400000 -1.102906 -1.074223
48.450000 -1.102210 -1.074223
48.500000 -1.100822 -1.074223
48.550000 -1.098781 -1.074223
48.600000 -1.096144 -1.074223
48.650000 -1.092982 -1.074223
48.700000 -1.089377 -1.074223
48.750000 -1.085425 -1.074223
48.800000 -1.081225 -1.074223
48.850000 -1.076886 -1.074223
48.900000 -1.072516 -1.074223
48.950000 -1.068226 -1.074223
49.000000 -1.064120 -1.074223
49.050000 -1.060301 -1.074223
49.100000 -1.056861 -1.074223
49.150000 -1.053883 -1.074223
49.200000 -1.051438 -1.074223
49.250000 -1.049581 -1.074223
49.300000 -1.048355 -1.074223
49.350000 -1.047785 -1.074223
49.400000 -1.047880 -1.074223
49.450000 -1.048632 -1.074223
49.500000 -1.050015 -1.074223
49.550000 -1.051992 -1.074223
49.600000 -1.054507 -1.074223
49.650000 -1.057494 -1.074223
49.700000 -1.060873 -1.074223
49.750000 -1.064557 -1.074223
49.800000 -1.068452 -1.074223
49.850000 -1.072459 -1.074223
49.900000 -1.076477 -1.074223
49.950000 -1.080404 -1.074223
50.000000 -1.084145 -1.074223
50.050000 -1.087607 -1.074223
50.100000 -1.090707 -1.074223
50.150000 -1.093369 -1.074223
50.200000 -1.095531 -1.074223
50.250000 -1.097143 -1.074223
50.300000 -1.098170 -1.074223
50.350000 -1.098590 -1.074223
50.400000 -1.098399 -1.074223
50.450000 -1.097606 -1.074223
50.500000 -1.096236 -1.074223
50.550000 -1.094327 -1.074223
50.600000 -1.091933 -1.074223
50.650000 -1.089117 -1.074223
50.700000 -1.085952 -1.074223
50.750000 -1.082521 -1.074223
50.800000 -1.078911 -1.074223
50.850000 -1.075214 -1.074223
50.900000 -1.071523 -1.074223
50.950000 -1.067930 -1.074223
51.000000 -1.064524 -1.074223
51.050000 -1.061389 -1.074223
51.100000 -1.058600 -1.074223
51.150000 -1.056224 -1.074223
51.200000 -1.054317 -1.074223
51.250000 -1.052923 -1.074223
51.300000 -1.052072 -1.074223
51.350000 -1.051781 -1.074223
51.400000 -1.052053 -1.074223
51.450000 -1.052876 -1.074223
51.500000 -1.054225 -1.074223
51.550000 -1.056062 -1.074223
51.600000 -1.058337 -1.074223
51.650000 -1.060989 -1.074223
51.700000 -1.063950 -1.074223
51.750000 -1.067143 -1.074223
51.800000 -1.070486 -1.074223
51.850000 -1.073894 -1.074223
51.900000 -1.077283 -1.074223
51.950000 -1.080567 -1.074223
52.000000 -1.083665 -1.074223
52.050000 -1.086502 -1.074223
52.100000 -1.089008 -1.074223
52.150000 -1.091125 -1.074223
52.200000 -1.092803 -1.074223
52.250000 -1.094002 -1.074223
52.300000 -1.094698 -1.074223
52.350000 -1.094878 -1.074223
52.400000 -1.094540 -1.074223
52.450000 -1.093697 -1.074223
52.500000 -1.092376 -1.074223
52.550000 -1.090613 -1.074223
52.600000 -1.088455 -1.074223
52.650000 -1.085960 -1.074223
52.700000 -1.083192 -1.074223
52.750000 -1.080224 -1.074223
52.800000 -1.077130 -1.074223
52.850000 -1.073990 -1.074223
52.900000 -1.070882 -1.074223
52.950000 -1.067883 -1.074223
53.000000 -1.065067 -1.074223
53.050000 -1.062503 -1.074223
53.100000 -1.060253 -1.074223
53.150000 -1.058370 -1.074224
53.200000 -1.056899 -1.074224
53.250000 -1.055872 -1.074224
53.300000 -1.055312 -1.074224
53.350000 -1.055229 -1.074224
53.400000 -1.055620 -1.074224
53.450000 -1.056473 -1.074224
53.500000 -1.057762 -1.074224
53.550000 -1.059450 -1.074224
53.600000 -1.061494 -1.074224
53.650000 -1.063838 -1.074224
53.700000 -1.066422 -1.074224
53.750000 -1.069180 -1.074224
53.800000 -1.072040 -1.074224
53.850000 -1.074931 -1.074224
53.900000 -1.077780 -1.074224
53.950000 -1.080517 -1.074224
54.000000 -1.083074 -1.074224
54.050000 -1.085389 -1.074224
54.100000 -1.087406 -1.074224
54.150000 -1.089077 -1.074224
54.200000 -1.090364 -1.074224
54.250000 -1.091237 -1.074224
54.300000 -1.091678 -1.074224
54.350000 -1.091679 -1.074224
54.400000 -1.091245 -1.074224
54.450000 -1.090390 -1.074224
54.500000 -1.089138 -1.074224
54.550000 -1.087524 -1.074224
54.600000 -1.085592 -1.074224
54.650000 -1.083392 -1.074224
54.700000 -1.080981 -1.074224
54.750000 -1.078422 -1.074224
54.800000 -1.075779 -1.074224
54.850000 -1.073120 -1.074224
54.900000 -1.070510 -1.074224
54.950000 -1.068014 -1.074224
55.000000 -1.065694 -1.074224
55.050000 -1.063607 -1.074224
55.100000 -1.061801 -1.074224
55.150000 -1.060321 -1.074224
55.200000 -1.059200 -1.074224
55.250000 -1.058463 -1.074224
55.300000 -1.058126 -1.074224
55.350000 -1.058194 -1.074224
55.400000 -1.058661 -1.074224
55.450000 -1.059513 -1.074224
55.500000 -1.060724 -1.074224
55.550000 -1.062263 -1.074224
55.600000 -1.064087 -1.074224
55.650000 -1.066150 -1.074224
55.700000 -1.068396 -1.074224
55.750000 -1.070770 -1.074224
55.800000 -1.073210 -1.074224
55.850000 -1.075655 -1.074224
55.900000 -1.078044 -1.074224
55.950000 -1.080318 -1.074224
56.000000 -1.082420 -1.074224
56.050000 -1.084301 -1.074224
56.100000 -1.085914 -1.074224
56.150000 -1.087223 -1.074224
56.200000 -1.088196 -1.074224
56.250000 -1.088812 -1.074224
56.300000 -1.089059 -1.074224
56.350000 -1.088933 -1.074224
56.400000 -1.088441 -1.074224
56.450000 -1.087599 -1.074224
56.500000 -1.086430 -1.074224
56.550000 -1.084965 -1.074224
56.600000 -1.083245 -1.074224
56.650000 -1.081314 -1.074224
56.700000 -1.079222 -1.074224
56.750000 -1.077022 -1.074224
56.800000 -1.074771 -1.074224
56.850000 -1.072525 -1.074224
56.900000 -1.070340 -1.074224
56.950000 -1.068270 -1.074224
57.000000 -1.066366 -1.074224
57.050000 -1.064674 -1.074224
57.100000 -1.063235 -1.074224
57.150000 -1.062081 -1.074224
57.200000 -1.061240 -1.074224
57.250000 -1.060731 -1.074224
57.300000 -1.060562 -1.074224
57.350000 -1.060736 -1.074224
57.400000 -1.061245 -1.074224
57.450000 -1.062074 -1.074224
57.500000 -1.063199 -1.074224
57.550000 -1.064590 -1.074224
57.600000 -1.066210 -1.074224
57.650000 -1.068016 -1.074224
57.700000 -1.069962 -1.074224
57.750000 -1.071999 -1.074224
57.800000 -1.074074 -1.074224
57.850000 -1.076136 -1.074224
57.900000 -1.078133 -1.074224
57.950000 -1.080016 -1.074224
58.000000 -1.081738 -1.074224
58.050000 -1.083259 -1.074224
58.100000 -1.084541 -1.074224
58.150000 -1.085555 -1.074224
58.200000 -1.086278 -1.074224
58.250000 -1.086694 -1.074224
58.300000 -1.086795 -1.074224
58.350000 -1.086582 -1.074224
58.400000 -1.086062 -1.074224
58.450000 -1.085251 -1.074224
58.500000 -1.084171 -1.074224
58.550000 -1.082852 -1.074224
58.600000 -1.081328 -1.074224
58.650000 -1.079640 -1.074224
58.700000 -1.077831 -1.074224
58.750000 -1.075947 -1.074224
58.800000 -1.074035 -1.074224
58.850000 -1.072144 -1.074224
58.900000 -1.070320 -1.074224
58.950000 -1.068609 -1.074224
59.000000 -1.067053 -1.074224
59.050000 -1.065688 -1.074224
59.100000 -1.064548 -1.074224
59.150000 -1.063659 -1.074224
59.200000 -1.063041 -1.074224
59.250000 -1.062707 -1.074224
59.300000 -1.062663 -1.074224
59.350000 -1.062908 -1.074224
59.400000 -1.063434 -1.074224
59.450000 -1.064225 -1.074224
59.500000 -1.065259 -1.074224
59.550000 -1.066508 -1.074224
59.600000 -1.067939 -1.074224
59.650000 -1.069515 -1.074224
59.700000 -1.071195 -1.074224
59.750000 -1.072937 -1.074224
59.800000 -1.074697 -1.074224
59.850000 -1.076431 -1.074224
59.900000 -1.078095 -1.074224
59.950000 -1.079648 -1.074224
60.000000 -1.081053 -1.074224
60.050000 -1.082276 -1.074224
60.100000 -1.083288 -1.074224
60.150000 -1.084065 -1.074224
60.200000 -1.084590 -1.074224
60.250000 -1.084852 -1.074224
60.300000 -1.084846 -1.074224
60.350000 -1.084576 -1.074224
60.400000 -1.084049 -1.074224
60.450000 -1.083281 -1.074224
60.500000 -1.082294 -1.074224
60.550000 -1.081113 -1.074224
60.600000 -1.079770 -1.074224
60.650000 -1.078300 -1.074224
60.700000 -1.076741 -1.074224
60.750000 -1.075131 -1.074224
60.800000 -1.073512 -1.074224
60.850000 -1.071925 -1.074224
60.900000 -1.070408 -1.074224
60.950000 -1.068998 -1.074224
61.000000 -1.067731 -1.074224
61.050000 -1.066637 -1.074224
61.100000 -1.065741 -1.074224
61.150000 -1.065064 -1.074224
61.200000 -1.064622 -1.074224
61.250000 -1.064423 -1.074224
61.300000 -1.064470 -1.074224
61.350000 -1.064760 -1.074224
61.400000 -1.065284 -1.074224
61.450000 -1.066027 -1.074224
61.500000 -1.066968 -1.074224
61.550000 -1.068082 -1.074224
61.600000 -1.069341 -1.074224
61.650000 -1.070711 -1.074224
61.700000 -1.072157 -1.074224
61.750000 -1.073643 -1.074224
61.800000 -1.075131 -1.074224
61.850000 -1.076584 -1.074224
61.900000 -1.077966 -1.074224
61.950000 -1.079243 -1.074224
62.000000 -1.080384 -1.074224
62.050000 -1.081362 -1.074224
62.100000 -1.082154 -1.074224
62.150000 -1.082741 -1.074224
62.200000 -1.083110 -1.074224
62.250000 -1.083255 -1.074224
62.300000 -1.083173 -1.074224
62.350000 -1.082869 -1.074224
62.400000 -1.082351 -1.074224
62.450000 -1.081634 -1.074224
62.500000 -1.080739 -1.074224
62.550000 -1.079688 -1.074224
62.600000 -1.078510 -1.074224
62.650000 -1.077234 -1.074224
62.700000 -1.075894 -1.074224
62.750000 -1.074523 -1.074224
62.800000 -1.073157 -1.074224
62.850000 -1.071828 -1.074224
62.900000 -1.070570 -1.074224
62.950000 -1.069414 -1.074224
63.000000 -1.068387 -1.074224
63.050000 -1.067515 -1.074224
63.100000 -1.066817 -1.074224
63.150000 -1.066310 -1.074224
63.200000 -1.066005 -1.074224
63.250000 -1.065907 -1.074224
63.300000 -1.066018 -1.074224
63.350000 -1.066333 -1.074224
63.400000 -1.066842 -1.074224
63.450000 -1.067531 -1.074224
63.500000 -1.068382 -1.074224
63.550000 -1.069371 -1.074224
63.600000 -1.070473 -1.074224
63.650000 -1.071660 -1.074224
63.700000 -1.072900 -1.074224
63.750000 -1.074164 -1.074224
63.800000 -1.075418 -1.074224
63.850000 -1.076632 -1.074224
63.900000 -1.077776 -1.074224
63.950000 -1.078822 -1.074224
64.000000 -1.079745 -1.074224
64.050000 -1.080521 -1.074224
64.100000 -1.081135 -1.074224
64.150000 -1.081570 -1.074224
64.200000 -1.081819 -1.074224
64.250000 -1.081876 -1.074224
64.300000 -1.081741 -1.074224
64.350000 -1.081420 -1.074224
64.400000 -1.080922 -1.074224
64.450000 -1.080261 -1.074224
64.500000 -1.079455 -1.074224
64.550000 -1.078525 -1.074224
64.600000 -1.077495 -1.074224
64.650000 -1.076392 -1.074224
64.700000 -1.075244 -1.074224
64.750000 -1.074080 -1.074224
64.800000 -1.072930 -1.074224
64.850000 -1.071821 -1.074224
64.900000 -1.070781 -1.074224
64.950000 -1.069837 -1.074224
65.000000 -1.069009 -1.074224
65.050000 -1.068318 -1.074224
65.100000 -1.067781 -1.074224
65.150000 -1.067409 -1.074224
65.200000 -1.067210 -1.074224
65.250000 -1.067188 -1.074224
65.300000 -1.067341 -1.074224
65.350000 -1.067666 -1.074224
65.400000 -1.068151 -1.074224
65.450000 -1.068783 -1.074224
65.500000 -1.069547 -1.074224
65.550000 -1.070420 -1.074224
65.600000 -1.071382 -1.074224
65.650000 -1.072406 -1.074224
65.700000 -1.073467 -1.074224
65.750000 -1.074538 -1.074224
65.800000 -1.075593 -1.074224
65.850000 -1.076604 -1.074224
65.900000 -1.077548 -1.074224
65.950000 -1.078401 -1.074224
66.000000 -1.079142 -1.074224
66.050000 -1.079755 -1.074224
66.100000 -1.080224 -1.074224
66.150000 -1.080540 -1.074224
66.200000 -1.080695 -1.074224
66.250000 -1.080688 -1.074224
66.300000 -1.080519 -1.074224
66.350000 -1.080195 -1.074224
66.400000 -1.079724 -1.074224
66.450000 -1.079120 -1.074224
66.500000 -1.078399 -1.074224
66.550000 -1.077579 -1.074224
66.600000 -1.076683 -1.074224
66.650000 -1.075732 -1.074224
66.700000 -1.074752 -1.074224
66.750000 -1.073767 -1.074224
66.800000 -1.072801 -1.074224
66.850000 -1.071879 -1.074224
66.900000 -1.071023 -1.074224
66.950000 -1.070254 -1.074224
67.000000 -1.069590 -1.074224
67.050000 -1.069048 -1.074224
67.100000 -1.068640 -1.074224
67.150000 -1.068374 -1.074224
67.200000 -1.068256 -1.074224
67.250000 -1.068289 -1.074224
67.300000 -1.068469 -1.074224
67.350000 -1.068791 -1.074224
67.400000 -1.069246 -1.074224
67.450000 -1.069822 -1.074224
67.500000 -1.070503 -1.074224
67.550000 -1.071271 -1.074224
67.600000 -1.072106 -1.074224
67.650000 -1.072988 -1.074224
67.700000 -1.073893 -1.074224
67.750000 -1.074798 -1.074224
67.800000 -1.075682 -1.074224
67.850000 -1.076522 -1.074224
67.900000 -1.077297 -1.074224
67.950000 -1.077990 -1.074224
68.000000 -1.078582 -1.074224
68.050000 -1.079061 -1.074224
68.100000 -1.079416 -1.074224
68.150000 -1.079637 -1.074224
68.200000 -1.079722 -1.074224
68.250000 -1.079669 -1.074224
68.300000 -1.079480 -1.074224
68.350000 -1.079162 -1.074224
68.400000 -1.078723 -1.074224
68.450000 -1.078175 -1.074224
68.500000 -1.077533 -1.074224
68.550000 -1.076814 -1.074224
68.600000 -1.076037 -1.074224
68.650000 -1.075220 -1.074224
68.700000 -1.074386 -1.074224
68.750000 -1.073554 -1.074224
68.800000 -1.072746 -1.074224
68.850000 -1.071981 -1.074224
68.900000 -1.071279 -1.074224
68.950000 -1.070656 -1.074224
69.000000 -1.070128 -1.074224
69.050000 -1.069706 -1.074224
69.100000 -1.069400 -1.074224
69.150000 -1.069218 -1.074224
69.200000 -1.069161 -1.074224
69.250000 -1.069232 -1.074224
69.300000 -1.069426 -1.074224
69.350000 -1.069739 -1.074224
69.400000 -1.070161 -1.074224
69.450000 -1.070681 -1.074224
69.500000 -1.071285 -1.074224
69.550000 -1.071958 -1.074224
69.600000 -1.072681 -1.074224
69.650000 -1.073437 -1.074224
69.700000 -1.074206 -1.074224
69.750000 -1.074969 -1.074224
69.800000 -1.075708 -1.074224
69.850000 -1.076403 -1.074224
69.900000 -1.077038 -1.074224
69.950000 -1.077597 -1.074224
70.000000 -1.078068 -1.074224
70.050000 -1.078439 -1.074224
70.100000 -1.078701 -1.074224
70.150000 -1.078849 -1.074224
70.200000 -1.078881 -1.074224
70.250000 -1.078797 -1.074224
70.300000 -1.078598 -1.074224
70.350000 -1.078293 -1.074224
70.400000 -1.077888 -1.074224
70.450000 -1.077395 -1.074224
70.500000 -1.076827 -1.074224
70.550000 -1.076199 -1.074224
70.600000 -1.075527 -1.074224
70.650000 -1.074827 -1.074224
70.700000 -1.074119 -1.074224
70.750000 -1.073419 -1.074224
70.800000 -1.072745 -1.074224
70.850000 -1.072113 -1.074224
70.900000 -1.071540 -1.074224
70.950000 -1.071038 -1.074224
71.000000 -1.070620 -1.074224
71.050000 -1.070295 -1.074224
71.100000 -1.070071 -1.074224
71.150000 -1.069952 -1.074224
71.200000 -1.069942 -1.074224
71.250000 -1.070038 -1.074224
71.300000 -1.070238 -1.074224
71.350000 -1.070535 -1.074224
71.400000 -1.070922 -1.074224
71.450000 -1.071389 -1.074224
71.500000 -1.071922 -1.074224
71.550000 -1.072508 -1.074224
71.600000 -1.073133 -1.074224
71.650000 -1.073779 -1.074224
71.700000 -1.074431 -1.074224
71.750000 -1.075072 -1.074224
71.800000 -1.075687 -1.074224
71.850000 -1.076261 -1.074224
71.900000 -1.076778 -1.074224
71.950000 -1.077228 -1.074224
72.000000 -1.077599 -1.074224
72.050000 -1.077882 -1.074224
72.100000 -1.078072 -1.074224
72.150000 -1.078164 -1.074224
72.200000 -1.078158 -1.074224
72.250000 -1.078052 -1.074224
72.300000 -1.077853 -1.074224
72.350000 -1.077564 -1.074224
72.400000 -1.077194 -1.074224
72.450000 -1.076754 -1.074224
72.500000 -1.076253 -1.074224
72.550000 -1.075707 -1.074224
72.600000 -1.075127 -1.074224
72.650000 -1.074530 -1.074224
72.700000 -1.073931 -1.074224
72.750000 -1.073343 -1.074224
72.800000 -1.072783 -1.074224
72.850000 -1.072263 -1.074224
72.900000 -1.071796 -1.074224
72.950000 -1.071394 -1.074224
73.000000 -1.071066 -1.074224
73.050000 -1.070819 -1.074224
73.100000 -1.070660 -1.074224
73.150000 -1.070590 -1.074224
73.200000 -1.070612 -1.074224
73.250000 -1.070724 -1.074224
73.300000 -1.070922 -1.074224
73.350000 -1.071202 -1.074224
73.400000 -1.071554 -1.074224
73.450000 -1.071970 -1.074224
73.500000 -1.072438 -1.074224
73.550000 -1.072948 -1.074224
73.600000 -1.073485 -1.074224
73.650000 -1.074036 -1.074224
73.700000 -1.074587 -1.074224
73.750000 -1.075124 -1.074224
73.800000 -1.075635 -1.074224
73.850000 -1.076106 -1.074224
73.900000 -1.076526 -1.074224
73.950000 -1.076885 -1.074224
74.000000 -1.077175 -1.074224
74.050000 -1.077389 -1.074224
74.100000 -1.077521 -1.074224
74.150000 -1.077571 -1.074224
74.200000 -1.077536 -1.074224
74.250000 -1.077420 -1.074224
74.300000 -1.077224 -1.074224
74.350000 -1.076955 -1.074224
74.400000 -1.076620 -1.074224
74.450000 -1.076228 -1.074224
74.500000 -1.075789 -1.074224
74.550000 -1.075315 -1.074224
74.600000 -1.074818 -1.074224
74.650000 -1.074310 -1.074224
74.700000 -1.073804 -1.074224
74.750000 -1.073312 -1.074224
74.800000 -1.072848 -1.074224
74.850000 -1.072421 -1.074224
74.900000 -1.072044 -1.074224
74.950000 -1.071723 -1.074224
75.000000 -1.071468 -1.074224
75.050000 -1.071284 -1.074224
75.100000 -1.071174 -1.074224
75.150000 -1.071142 -1.074224
75.200000 -1.071187 -1.074224
75.250000 -1.071307 -1.074224
75.300000 -1.071499 -1.074224
75.350000 -1.071758 -1.074224
75.400000 -1.072076 -1.074224
75.450000 -1.072444 -1.074224
75.500000 -1.072855 -1.074224
75.550000 -1.073296 -1.074224
75.600000 -1.073756 -1.074224
75.650000 -1.074224 -1.074224
75.700000 -1.074689 -1.074224
75.750000 -1.075138 -1.074224
75.800000 -1.075560 -1.074224
75.850000 -1.075946 -1.074224
75.900000 -1.076285 -1.074224
75.950000 -1.076570 -1.074224
76.000000 -1.076794 -1.074224
76.050000 -1.076952 -1.074224
76.100000 -1.077041 -1.074224
76.150000 -1.077059 -1.074224
76.200000 -1.077005 -1.074224
76.250000 -1.076883 -1.074224
76.300000 -1.076695 -1.074224
76.350000 -1.076447 -1.074224
76.400000 -1.076146 -1.074224
76.450000 -1.075800 -1.074224
76.500000 -1.075416 -1.074224
76.550000 -1.075007 -1.074224
76.600000 -1.074581 -1.074224
76.650000 -1.074149 -1.074224
76.700000 -1.073724 -1.074224
76.750000 -1.073314 -1.074224
76.800000 -1.072930 -1.074224
76.850000 -1.072582 -1.074224
76.900000 -1.072277 -1.074224
76.950000 -1.072024 -1.074224
77.000000 -1.071828 -1.074224
77.050000 -1.071693 -1.074224
77.100000 -1.071623 -1.074224
77.150000 -1.071618 -1.074224
77.200000 -1.071678 -1.074224
77.250000 -1.071801 -1.074224
77.300000 -1.071983 -1.074224
77.350000 -1.072220 -1.074224
77.400000 -1.072505 -1.074224
77.450000 -1.072831 -1.074224
77.500000 -1.073189 -1.074224
77.550000 -1.073569 -1.074224
77.600000 -1.073963 -1.074224
77.650000 -1.074360 -1.074224
77.700000 -1.074750 -1.074224
77.750000 -1.075124 -1.074224
77.800000 -1.075472 -1.074224
77.850000 -1.075786 -1.074224
77.900000 -1.076059 -1.074224
77.950000 -1.076283 -1.074224
78.000000 -1.076454 -1.074224
78.050000 -1.076569 -1.074224
78.100000 -1.076623 -1.074224
78.150000 -1.076618 -1.074224
78.200000 -1.076552 -1.074224
78.250000 -1.076429 -1.074224
78.300000 -1.076252 -1.074224
78.350000 -1.076026 -1.074224
78.400000 -1.075757 -1.074224
78.450000 -1.075451 -1.074224
78.500000 -1.075118 -1.074224
78.550000 -1.074765 -1.074224
78.600000 -1.074401 -1.074224
78.650000 -1.074036 -1.074224
78.700000 -1.073679 -1.074224
78.750000 -1.073339 -1.074224
78.800000 -1.073023 -1.074224
78.850000 -1.072740 -1.074224
78.900000 -1.072496 -1.074224
78.950000 -1.072297 -1.074224
79.000000 -1.072148 -1.074224
79.050000 -1.072052 -1.074224
79.100000 -1.072012 -1.074224
79.150000 -1.072026 -1.074224
79.200000 -1.072096 -1.074224
79.250000 -1.072218 -1.074224
79.300000 -1.072389 -1.074224
79.350000 -1.072604 -1.074224
79.400000 -1.072858 -1.074224
79.450000 -1.073144 -1.074224
79.500000 -1.073455 -1.074224
79.550000 -1.073782 -1.074224
79.600000 -1.074117 -1.074224
79.650000 -1.074453 -1.074224
79.700000 -1.074780 -1.074224
79.750000 -1.075090 -1.074224
79.800000 -1.075376 -1.074224
79.850000 -1.075631 -1.074224
79.900000 -1.075849 -1.074224
79.950000 -1.076024 -1.074224
80.000000 -1.076153 -1.074224
80.050000 -1.076233 -1.074224
80.100000 -1.076261 -1.074224
80.150000 -1.076239 -1.074224
80.200000 -1.076167 -1.074224
80.250000 -1.076047 -1.074224
80.300000 -1.075882 -1.074224
80.350000 -1.075677 -1.074224
80.400000 -1.075438 -1.074224
80.450000 -1.075170 -1.074224
80.500000 -1.074881 -1.074224
80.550000 -1.074578 -1.074224
80.600000 -1.074268 -1.074224
80.650000 -1.073960 -1.074224
80.700000 -1.073662 -1.074224
80.750000 -1.073379 -1.074224
80.800000 -1.073120 -1.074224
80.850000 -1.072891 -1.074224
80.900000 -1.072697 -1.074224
80.950000 -1.072543 -1.074224
81.000000 -1.072432 -1.074224
81.050000 -1.072366 -1.074224
81.100000 -1.072348 -1.074224
81.150000 -1.072376 -1.074224
81.200000 -1.072451 -1.074224
81.250000 -1.072569 -1.074224
81.300000 -1.072727 -1.074224
81.350000 -1.072921 -1.074224
81.400000 -1.073146 -1.074224
81.450000 -1.073397 -1.074224
81.500000 -1.073665 -1.074224
81.550000 -1.073946 -1.074224
81.600000 -1.074231 -1.074224
81.650000 -1.074514 -1.074224
81.700000 -1.074787 -1.074224
81.750000 -1.075043 -1.074224
81.800000 -1.075277 -1.074224
81.850000 -1.075483 -1.074224
81.900000 -1.075656 -1.074224
81.950000 -1.075791 -1.074224
82.000000 -1.075887 -1.074224
82.050000 -1.075939 -1.074224
82.100000 -1.075949 -1.074224
82.150000 -1.075916 -1.074224
82.200000 -1.075840 -1.074224
82.250000 -1.075725 -1.074224
82.300000 -1.075573 -1.074224
82.350000 -1.075389 -1.074224
82.400000 -1.075177 -1.074224
82.450000 -1.074944 -1.074224
82.500000 -1.074694 -1.074224
82.550000 -1.074435 -1.074224
82.600000 -1.074172 -1.074224
82.650000 -1.073913 -1.074224
82.700000 -1.073664 -1.074224
82.750000 -1.073431 -1.074224
82.800000 -1.073219 -1.074224
82.850000 -1.073035 -1.074224
82.900000 -1.072881 -1.074224
82.950000 -1.072763 -1.074224
83.000000 -1.072682 -1.074224
83.050000 -1.072640 -1.074224
83.100000 -1.072638 -1.074224
83.150000 -1.072675 -1.074224
83.200000 -1.072751 -1.074224
83.250000 -1.072863 -1.074224
83.300000 -1.073008 -1.074224
83.350000 -1.073182 -1.074224
83.400000 -1.073381 -1.074224
83.450000 -1.073599 -1.074224
83.500000 -1.073831 -1.074224
83.550000 -1.074071 -1.074224
83.600000 -1.074312 -1.074224
83.650000 -1.074550 -1.074224
83.700000 -1.074777 -1.074224
83.750000 -1.074988 -1.074224
83.800000 -1.075179 -1.074224
83.850000 -1.075344 -1.074224
83.900000 -1.075480 -1.074224
83.950000 -1.075584 -1.074224
84.000000 -1.075652 -1.074224
84.050000 -1.075685 -1.074224
84.100000 -1.075680 -1.074224
84.150000 -1.075640 -1.074224
84.200000 -1.075564 -1.074224
84.250000 -1.075455 -1.074224
84.300000 -1.075317 -1.074224
84.350000 -1.075153 -1.074224
84.400000 -1.074966 -1.074224
84.450000 -1.074763 -1.074224
84.500000 -1.074548 -1.074224
84.550000 -1.074326 -1.074224
84.600000 -1.074104 -1.074224
84.650000 -1.073887 -1.074224
84.700000 -1.073680 -1.074224
84.750000 -1.073488 -1.074224
84.800000 -1.073316 -1.074224
84.850000 -1.073168 -1.074224
84.900000 -1.073048 -1.074224
84.950000 -1.072958 -1.074224
85.000000 -1.072901 -1.074224
85.050000 -1.072877 -1.074224
85.100000 -1.072887 -1.074224
85.150000 -1.072930 -1.074224
85.200000 -1.073005 -1.074224
85.250000 -1.073110 -1.074224
85.300000 -1.073241 -1.074224
85.350000 -1.073396 -1.074224
85.400000 -1.073571 -1.074224
85.450000 -1.073760 -1.074224
85.500000 -1.073960 -1.074224
85.550000 -1.074164 -1.074224
85.600000 -1.074368 -1.074224
85.650000 -1.074567 -1.074224
85.700000 -1.074755 -1.074224
85.750000 -1.074929 -1.074224
85.800000 -1.075084 -1.074224
85.850000 -1.075216 -1.074224
85.900000 -1.075322 -1.074224
85.950000 -1.075400 -1.074224
86.000000 -1.075447 -1.074224
86.050000 -1.075464 -1.074224
86.100000 -1.075450 -1.074224
86.150000 -1.075405 -1.074224
86.200000 -1.075331 -1.074224
86.250000 -1.075230 -1.074224
86.300000 -1.075105 -1.074224
86.350000 -1.074959 -1.074224
86.400000 -1.074796 -1.074224
86.450000 -1.074619 -1.074224
86.500000 -1.074435 -1.074224
86.550000 -1.074246 -1.074224
86.600000 -1.074059 -1.074224
86.650000 -1.073877 -1.074224
86.700000 -1.073706 -1.074224
86.750000 -1.073548 -1.074224
86.800000 -1.073409 -1.074224
86.850000 -1.073292 -1.074224
86.900000 -1.073199 -1.074224
86.950000 -1.073132 -1.074224
87.000000 -1.073092 -1.074224
87.050000 -1.073082 -1.074224
87.100000 -1.073100 -1.074224
87.150000 -1.073146 -1.074224
87.200000 -1.073218 -1.074224
87.250000 -1.073315 -1.074224
87.300000 -1.073434 -1.074224
87.350000 -1.073571 -1.074224
87.400000 -1.073724 -1.074224
87.450000 -1.073888 -1.074224
87.500000 -1.074059 -1.074224
87.550000 -1.074232 -1.074224
87.600000 -1.074404 -1.074224
87.650000 -1.074570 -1.074224
87.700000 -1.074726 -1.074224
87.750000 -1.074868 -1.074224
87.800000 -1.074993 -1.074224
87.850000 -1.075098 -1.074224
87.900000 -1.075180 -1.074224
87.950000 -1.075237 -1.074224
88.000000 -1.075269 -1.074224
88.050000 -1.075274 -1.074224
88.100000 -1.075253 -1.074224
88.150000 -1.075206 -1.074224
88.200000 -1.075136 -1.074224
88.250000 -1.075043 -1.074224
88.300000 -1.074930 -1.074224
88.350000 -1.074801 -1.074224
88.400000 -1.074658 -1.074224
88.450000 -1.074506 -1.074224
88.500000 -1.074348 -1.074224
88.550000 -1.074188 -1.074224
88.600000 -1.074031 -1.074224
88.650000 -1.073879 -1.074224
88.700000 -1.073738 -1.074224
88.750000 -1.073609 -1.074224
88.800000 -1.073497 -1.074224
88.850000 -1.073405 -1.074224
88.900000 -1.073333 -1.074224
88.950000 -1.073284 -1.074224
89.000000 -1.073259 -1.074224
89.050000 -1.073258 -1.074224
89.100000 -1.073282 -1.074224
89.150000 -1.073329 -1.074224
89.200000 -1.073397 -1.074224
89.250000 -1.073486 -1.074224
89.300000 -1.073593 -1.074224
89.350000 -1.073714 -1.074224
89.400000 -1.073847 -1.074224
89.450000 -1.073988 -1.074224
89.500000 -1.074134 -1.074224
89.550000 -1.074281 -1.074224
89.600000 -1.074426 -1.074224
89.650000 -1.074564 -1.074224
89.700000 -1.074692 -1.074224
89.750000 -1.074808 -1.074224
89.800000 -1.074908 -1.074224
89.850000 -1.074990 -1.074224
89.900000 -1.075053 -1.074224
89.950000 -1.075094 -1.074224
90.000000 -1.075113 -1.074224
90.050000 -1.075110 -1.074224
90.100000 -1.075085 -1.074224
90.150000 -1.075038 -1.074224
90.200000 -1.074972 -1.074224
90.250000 -1.074887 -1.074224
90.300000 -1.074786 -1.074224
90.350000 -1.074673 -1.074224
90.400000 -1.074549 -1.074224
90.450000 -1.074418 -1.074224
90.500000 -1.074283 -1.074224
90.550000 -1.074148 -1.074224
90.600000 -1.074016 -1.074224
90.650000 -1.073890 -1.074224
90.700000 -1.073773 -1.074224
90.750000 -1.073669 -1.074224
90.800000 -1.073579 -1.074224
90.850000 -1.073507 -1.074224
90.900000 -1.073452 -1.074224
90.950000 -1.073418 -1.074224
91.000000 -1.073404 -1.074224
91.050000 -1.073410 -1.074224
91.100000 -1.073437 -1.074224
91.150000 -1.073483 -1.074224
91.200000 -1.073547 -1.074224
91.250000 -1.073628 -1.074224
91.300000 -1.073723 -1.074224
91.350000 -1.073829 -1.074224
91.400000 -1.073945 -1.074224
91.450000 -1.074066 -1.074224
91.500000 -1.074190 -1.074224
91.550000 -1.074315 -1.074224
91.600000 -1.074436 -1.074224
91.650000 -1.074550 -1.074224
91.700000 -1.074656 -1.074224
91.750000 -1.074749 -1.074224
91.800000 -1.074829 -1.074224
91.850000 -1.074894 -1.074224
91.900000 -1.074940 -1.074224
91.950000 -1.074969 -1.074224
92.000000 -1.074979 -1.074224
92.050000 -1.074970 -1.074224
92.100000 -1.074942 -1.074224
92.150000 -1.074897 -1.074224
92.200000 -1.074835 -1.074224
92.250000 -1.074758 -1.074224
92.300000 -1.074669 -1.074224
92.350000 -1.074569 -1.074224
92.400000 -1.074462 -1.074224
92.450000 -1.074349 -1.074224
92.500000 -1.074235 -1.074224
92.550000 -1.074121 -1.074224
92.600000 -1.074010 -1.074224
92.650000 -1.073906 -1.074224
92.700000 -1.073810 -1.074224
92.750000 -1.073726 -1.074224
92.800000 -1.073655 -1.074224
92.850000 -1.073598 -1.074224
92.900000 -1.073558 -1.074224
92.950000 -1.073535 -1.074224
93.000000 -1.073529 -1.074224
93.050000 -1.073540 -1.074224
93.100000 -1.073568 -1.074224
93.150000 -1.073613 -1.074224
93.200000 -1.073672 -1.074224
93.250000 -1.073745 -1.074224
93.300000 -1.073829 -1.074224
93.350000 -1.073922 -1.074224
93.400000 -1.074022 -1.074224
93.450000 -1.074126 -1.074224
93.500000 -1.074232 -1.074224
93.550000 -1.074336 -1.074224
93.600000 -1.074437 -1.074224
93.650000 -1.074532 -1.074224
93.700000 -1.074618 -1.074224
93.750000 -1.074694 -1.074224
93.800000 -1.074757 -1.074224
93.850000 -1.074807 -1.074224
93.900000 -1.074841 -1.074224
93.950000 -1.074860 -1.074224
94.000000 -1.074863 -1.074224
94.050000 -1.074850 -1.074224
94.100000 -1.074821 -1.074224
94.150000 -1.074778 -1.074224
94.200000 -1.074721 -1.074224
94.250000 -1.074652 -1.074224
94.300000 -1.074573 -1.074224
94.350000 -1.074486 -1.074224
94.400000 -1.074393 -1.074224
94.450000 -1.074297 -1.074224
94.500000 -1.074200 -1.074224
94.550000 -1.074104 -1.074224
94.600000 -1.074012 -1.074224
94.650000 -1.073926 -1.074224
94.700000 -1.073848 -1.074224
94.750000 -1.073780 -1.074224
94.800000 -1.073724 -1.074224
94.850000 -1.073680 -1.074224
94.900000 -1.073651 -1.074224
94.950000 -1.073636 -1.074224
95.000000 -1.073636 -1.074224
95.050000 -1.073651 -1.074224
95.100000 -1.073680 -1.074224
95.150000 -1.073722 -1.074224
95.200000 -1.073776 -1.074224
95.250000 -1.073841 -1.074224
95.300000 -1.073915 -1.074224
95.350000 -1.073996 -1.074224
95.400000 -1.074082 -1.074224
95.450000 -1.074171 -1.074224
95.500000 -1.074261 -1.074224
95.550000 -1.074349 -1.074224
95.600000 -1.074433 -1.074224
95.650000 -1.074511 -1.074224
95.700000 -1.074581 -1.074224
95.750000 -1.074642 -1.074224
95.800000 -1.074692 -1.074224
95.850000 -1.074729 -1.074224
95.900000 -1.074754 -1.074224
95.950000 -1.074765 -1.074224
96.000000 -1.074763 -1.074224
96.050000 -1.074747 -1.074224
96.100000 -1.074719 -1.074224
96.150000 -1.074678 -1.074224
96.200000 -1.074626 -1.074224
96.250000 -1.074565 -1.074224
96.300000 -1.074495 -1.074224
96.350000 -1.074420 -1.074224
96.400000 -1.074340 -1.074224
96.450000 -1.074258 -1.074224
96.500000 -1.074175 -1.074224
96.550000 -1.074095 -1.074224
96.600000 -1.074019 -1.074224
96.650000 -1.073948 -1.074224
96.700000 -1.073884 -1.074224
96.750000 -1.073830 -1.074224
96.800000 -1.073786 -1.074224
96.850000 -1.073753 -1.074224
96.900000 -1.073733 -1.074224
96.950000 -1.073724 -1.074224
97.000000 -1.073729 -1.074224
97.050000 -1.073745 -1.074224
97.100000 -1.073774 -1.074224
97.150000 -1.073813 -1.074224
97.200000 -1.073862 -1.074224
97.250000 -1.073920 -1.074224
97.300000 -1.073985 -1.074224
97.350000 -1.074056 -1.074224
97.400000 -1.074130 -1.074224
97.450000 -1.074205 -1.074224
97.500000 -1.074281 -1.074224
97.550000 -1.074354 -1.074224
97.600000 -1.074424 -1.074224
97.650000 -1.074488 -1.074224
97.700000 -1.074545 -1.074224
97.750000 -1.074593 -1.074224
97.800000 -1.074632 -1.074224
97.850000 -1.074661 -1.074224
97.900000 -1.074678 -1.074224
97.950000 -1.074683 -1.074224
98.000000 -1.074677 -1.074224
98.050000 -1.074660 -1.074224
98.100000 -1.074632 -1.074224
98.150000 -1.074595 -1.074224
98.200000 -1.074548 -1.074224
98.250000 -1.074493 -1.074224
98.300000 -1.074432 -1.074224
98.350000 -1.074367 -1.074224
98.400000 -1.074298 -1.074224
98.450000 -1.074229 -1.074224
98.500000 -1.074159 -1.074224
98.550000 -1.074092 -1.074224
98.600000 -1.074029 -1.074224
98.650000 -1.073971 -1.074224
98.700000 -1.073920 -1.074224
98.750000 -1.073876 -1.074224
98.800000 -1.073842 -1.074224
98.850000 -1.073818 -1.074224
98.900000 -1.073804 -1.074224
98.950000 -1.073801 -1.074224
99.000000 -1.073808 -1.074224
99.050000 -1.073825 -1.074224
99.100000 -1.073853 -1.074224
99.150000 -1.073889 -1.074224
99.200000 -1.073933 -1.074224
99.250000 -1.073985 -1.074224
99.300000 -1.074041 -1.074224
99.350000 -1.074102 -1.074224
99.400000 -1.074166 -1.074224
99.450000 -1.074230 -1.074224
99.500000 -1.074294 -1.074224
99.550000 -1.074355 -1.074224
99.600000 -1.074413 -1.074224
99.650000 -1.074465 -1.074224
99.700000 -1.074511 -1.074224
99.750000 -1.074549 -1.074224
99.800000 -1.074579 -1.074224
99.850000 -1.074600 -1.074224
99.900000 -1.074611 -1.074224
99.950000 -1.074613 -1.074224
100.000000 -1.074604 -1.074224
100.050000 -1.074587 -1.074224
100.100000 -1.074560 -1.074224
100.150000 -1.074525 -1.074224
100.200000 -1.074483 -1.074224
100.250000 -1.074435 -1.074224
100.300000 -1.074382 -1.074224
100.350000 -1.074325 -1.074224
100.400000 -1.074267 -1.074224
100.450000 -1.074208 -1.074224
100.500000 -1.074149 -1.074224
100.550000 -1.074093 -1.074224
100.600000 -1.074041 -1.074224
100.650000 -1.073994 -1.074224
100.700000 -1.073953 -1.074224
100.750000 -1.073919 -1.074224
100.800000 -1.073892 -1.074224
100.850000 -1.073875 -1.074224
100.900000 -1.073866 -1.074224
100.950000 -1.073866 -1.074224
101.000000 -1.073875 -1.074224
101.050000 -1.073893 -1.074224
101.100000 -1.073919 -1.074224
101.150000 -1.073952 -1.074224
101.200000 -1.073992 -1.074224
101.250000 -1.074037 -1.074224
101.300000 -1.074087 -1.074224
101.350000 -1.074139 -1.074224
101.400000 -1.074193 -1.074224
101.450000 -1.074248 -1.074224
101.500000 -1.074301 -1.074224
101.550000 -1.074352 -1.074224
101.600000 -1.074400 -1.074224
101.650000 -1.074442 -1.074224
101.700000 -1.074479 -1.074224
101.750000 -1.074509 -1.074224
101.800000 -1.074532 -1.074224
101.850000 -1.074547 -1.074224
101.900000 -1.074553 -1.074224
101.950000 -1.074552 -1.074224
102.000000 -1.074542 -1.074224
102.050000 -1.074524 -1.074224
102.100000 -1.074499 -1.074224
102.150000 -1.074468 -1.074224
102.200000 -1.074430 -1.074224
102.250000 -1.074388 -1.074224
102.300000 -1.074342 -1.074224
102.350000 -1.074293 -1.074224
102.400000 -1.074243 -1.074224
102.450000 -1.074193 -1.074224
102.500000 -1.074144 -1.074224
102.550000 -1.074098 -1.074224
102.600000 -1.074055 -1.074224
102.650000 -1.074016 -1.074224
102.700000 -1.073983 -1.074224
102.750000 -1.073957 -1.074224
102.800000 -1.073937 -1.074224
102.850000 -1.073925 -1.074224
102.900000 -1.073920 -1.074224
102.950000 -1.073922 -1.074224
103.000000 -1.073933 -1.074224
103.050000 -1.073950 -1.074224
103.100000 -1.073974 -1.074224
103.150000 -1.074004 -1.074224
103.200000 -1.074040 -1.074224
103.250000 -1.074079 -1.074224
103.300000 -1.074122 -1.074224
103.350000 -1.074167 -1.074224
103.400000 -1.074214 -1.074224
103.450000 -1.074260 -1.074224
103.500000 -1.074304 -1.074224
103.550000 -1.074347 -1.074224
103.600000 -1.074386 -1.074224
103.650000 -1.074420 -1.074224
103.700000 -1.074449 -1.074224
103.750000 -1.074473 -1.074224
103.800000 -1.074490 -1.074224
103.850000 -1.074500 -1.074224
103.900000 -1.074503 -1.074224
103.950000 -1.074500 -1.074224
104.000000 -1.074489 -1.074224
104.050000 -1.074472 -1.074224
104.100000 -1.074449 -1.074224
104.150000 -1.074420 -1.074224
104.200000 -1.074387 -1.074224
104.250000 -1.074350 -1.074224
104.300000 -1.074310 -1.074224
104.350000 -1.074268 -1.074224
104.400000 -1.074226 -1.074224
104.450000 -1.074183 -1.074224
104.500000 -1.074143 -1.074224
104.550000 -1.074104 -1.074224
104.600000 -1.074069 -1.074224
104.650000 -1.074038 -1.074224
104.700000 -1.074012 -1.074224
104.750000 -1.073991 -1.074224
104.800000 -1.073976 -1.074224
104.850000 -1.073968 -1.074224
104.900000 -1.073966 -1.074224
104.950000 -1.073971 -1.074224
105.000000 -1.073981 -1.074224
105.050000 -1.073998 -1.074224
105.100000 -1.074021 -1.074224
105.150000 -1.074048 -1.074224
105.200000 -1.074079 -1.074224
105.250000 -1.074114 -1.074224
105.300000 -1.074151 -1.074224
105.350000 -1.074189 -1.074224
105.400000 -1.074229 -1.074224
105.450000 -1.074267 -1.074224
105.500000 -1.074305 -1.074224
105.550000 -1.074340 -1.074224
105.600000 -1.074371 -1.074224
105.650000 -1.074399 -1.074224
105.700000 -1.074422 -1.074224
105.750000 -1.074440 -1.074224
105.800000 -1.074453 -1.074224
105.850000 -1.074460 -1.074224
105.900000 -1.074460 -1.074224
105.950000 -1.074455 -1.074224
106.000000 -1.074444 -1.074224
106.050000 -1.074428 -1.074224
106.100000 -1.074407 -1.074224
106.150000 -1.074381 -1.074224
106.200000 -1.074352 -1.074224
106.250000 -1.074319 -1.074224
106.300000 -1.074285 -1.074224
106.350000 -1.074249 -1.074224
106.400000 -1.074213 -1.074224
106.450000 -1.074178 -1.074224
106.500000 -1.074144 -1.074224
106.550000 -1.074112 -1.074224
106.600000 -1.074083 -1.074224
106.650000 -1.074058 -1.074224
106.700000 -1.074038 -1.074224
106.750000 -1.074022 -1.074224
106.800000 -1.074011 -1.074224
106.850000 -1.074006 -1.074224
106.900000 -1.074006 -1.074224
106.950000 -1.074012 -1.074224
107.000000 -1.074023 -1.074224
107.050000 -1.074039 -1.074224
107.100000 -1.074059 -1.074224
107.150000 -1.074083 -1.074224
107.200000 -1.074111 -1.074224
107.250000 -1.074141 -1.074224
107.300000 -1.074173 -1.074224
107.350000 -1.074206 -1.074224
107.400000 -1.074239 -1.074224
107.450000 -1.074272 -1.074224
107.500000 -1.074303 -1.074224
107.550000 -1.074331 -1.074224
107.600000 -1.074357 -1.074224
107.650000 -1.074380 -1.074224
107.700000 -1.074398 -1.074224
107.750000 -1.074412 -1.074224
107.800000 -1.074420 -1.074224
107.850000 -1.074424 -1.074224
107.900000 -1.074423 -1.074224
107.950000 -1.074417 -1.074224
108.000000 -1.074406 -1.074224
108.050000 -1.074391 -1.074224
108.100000 -1.074372 -1.074224
108.150000 -1.074349 -1.074224
108.200000 -1.074323 -1.074224
108.250000 -1.074295 -1.074224
108.300000 -1.074265 -1.074224
108.350000 -1.074235 -1.074224
108.400000 -1.074204 -1.074224
108.450000 -1.074175 -1.074224
108.500000 -1.074146 -1.074224
108.550000 -1.074120 -1.074224
108.600000 -1.074097 -1.074224
108.650000 -1.074077 -1.074224
108.700000 -1.074061 -1.074224
108.750000 -1.074049 -1.074224
108.800000 -1.074041 -1.074224
108.850000 -1.074039 -1.074224
108.900000 -1.074040 -1.074224
108.950000 -1.074047 -1.074224
109.000000 -1.074057 -1.074224
109.050000 -1.074072 -1.074224
109.100000 -1.074091 -1.074224
109.150000 -1.074112 -1.074224
109.200000 -1.074136 -1.074224
109.250000 -1.074163 -1.074224
109.300000 -1.074190 -1.074224
109.350000 -1.074218 -1.074224
109.400000 -1.074246 -1.074224
109.450000 -1.074273 -1.074224
109.500000 -1.074299 -1.074224
109.550000 -1.074323 -1.074224
109.600000 -1.074344 -1.074224
109.650000 -1.074361 -1.074224
109.700000 -1.074376 -1.074224
109.750000 -1.074386 -1.074224
109.800000 -1.074392 -1.074224
109.850000 -1.074394 -1.074224
109.900000 -1.074392 -1.074224
109.950000 -1.074385 -1.074224
110.000000 -1.074375 -1.074224
110.050000 -1.074360 -1.074224
110.100000 -1.074343 -1.074224
110.150000 -1.074323 -1.074224
110.200000 -1.074300 -1.074224
110.250000 -1.074276 -1.074224
110.300000 -1.074250 -1.074224
110.350000 -1.074224 -1.074224
110.400000 -1.074199 -1.074224
110.450000 -1.074174 -1.074224
110.500000 -1.074150 -1.074224
110.550000 -1.074129 -1.074224
110.600000 -1.074110 -1.074224
110.650000 -1.074094 -1.074224
110.700000 -1.074082 -1.074224
110.750000 -1.074073 -1.074224
110.800000 -1.074068 -1.074224
110.850000 -1.074067 -1.074224
110.900000 -1.074070 -1.074224
110.950000 -1.074076 -1.074224
111.000000 -1.074087 -1.074224
111.050000 -1.074100 -1.074224
111.100000 -1.074117 -1.074224
111.150000 -1.074136 -1.074224
111.200000 -1.074157 -1.074224
111.250000 -1.074180 -1.074224
111.300000 -1.074203 -1.074224
111.350000 -1.074227 -1.074224
111.400000 -1.074251 -1.074224
111.450000 -1.074273 -1.074224
111.500000 -1.074295 -1.074224
111.550000 -1.074314 -1.074224
111.600000 -1.074331 -1.074224
111.650000 -1.074345 -1.074224
111.700000 -1.074356 -1.074224
111.750000 -1.074363 -1.074224
111.800000 -1.074367 -1.074224
111.850000 -1.074368 -1.074224
111.900000 -1.074364 -1.074224
111.950000 -1.074358 -1.074224
112.000000 -1.074348 -1.074224
112.050000 -1.074335 -1.074224
112.100000 -1.074319 -1.074224
112.150000 -1.074301 -1.074224
112.200000 -1.074281 -1.074224
112.250000 -1.074260 -1.074224
112.300000 -1.074239 -1.074224
112.350000 -1.074217 -1.074224
112.400000 -1.074195 -1.074224
112.450000 -1.074174 -1.074224
112.500000 -1.074155 -1.074224
112.550000 -1.074138 -1.074224
112.600000 -1.074123 -1.074224
112.650000 -1.074110 -1.074224
112.700000 -1.074101 -1.074224
112.750000 -1.074094 -1.074224
112.800000 -1.074091 -1.074224
112.850000 -1.074091 -1.074224
112.900000 -1.074095 -1.074224
112.950000 -1.074102 -1.074224
113.000000 -1.074111 -1.074224
113.050000 -1.074124 -1.074224
113.100000 -1.074139 -1.074224
113.150000 -1.074155 -1.074224
113.200000 -1.074174 -1.074224
113.250000 -1.074193 -1.074224
113.300000 -1.074213 -1.074224
113.350000 -1.074234 -1.074224
113.400000 -1.074253 -1.074224
113.450000 -1.074272 -1.074224
113.500000 -1.074290 -1.074224
113.550000 -1.074305 -1.074224
113.600000 -1.074319 -1.074224
113.650000 -1.074330 -1.074224
113.700000 -1.074338 -1.074224
113.750000 -1.074344 -1.074224
113.800000 -1.074346 -1.074224
113.850000 -1.074345 -1.074224
113.900000 -1.074341 -1.074224
113.950000 -1.074335 -1.074224
114.000000 -1.074325 -1.074224
114.050000 -1.074313 -1.074224
114.100000 -1.074299 -1.074224
114.150000 -1.074284 -1.074224
114.200000 -1.074267 -1.074224
114.250000 -1.074248 -1.074224
114.300000 -1.074230 -1.074224
114.350000 -1.074211 -1.074224
114.400000 -1.074193 -1.074224
114.450000 -1.074176 -1.074224
114.500000 -1.074160 -1.074224
114.550000 -1.074146 -1.074224
114.600000 -1.074134 -1.074224
114.650000 -1.074124 -1.074224
114.700000 -1.074117 -1.074224
114.750000 -1.074113 -1.074224
114.800000 -1.074111 -1.074224
114.850000 -1.074112 -1.074224
114.900000 -1.074116 -1.074224
114.950000 -1.074123 -1.074224
115.000000 -1.074132 -1.074224
115.050000 -1.074143 -1.074224
115.100000 -1.074156 -1.074224
115.150000 -1.074171 -1.074224
115.200000 -1.074187 -1.074224
115.250000 -1.074204 -1.074224
115.300000 -1.074221 -1.074224
115.350000 -1.074238 -1.074224
115.400000 -1.074254 -1.074224
115.450000 -1.074270 -1.074224
115.500000 -1.074284 -1.074224
115.550000 -1.074297 -1.074224
115.600000 -1.074308 -1.074224
115.650000 -1.074316 -1.074224
115.700000 -1.074323 -1.074224
115.750000 -1.074326 -1.074224
115.800000 -1.074327 -1.074224
115.850000 -1.074326 -1.074224
115.900000 -1.074322 -1.074224
115.950000 -1.074315 -1.074224
116.000000 -1.074307 -1.074224
116.050000 -1.074296 -1.074224
116.100000 -1.074284 -1.074224
116.150000 -1.074270 -1.074224
116.200000 -1.074255 -1.074224
116.250000 -1.074239 -1.074224
116.300000 -1.074224 -1.074224
116.350000 -1.074208 -1.074224
116.400000 -1.074193 -1.074224
116.450000 -1.074179 -1.074224
116.500000 -1.074166 -1.074224
116.550000 -1.074154 -1.074224
116.600000 -1.074145 -1.074224
116.650000 -1.074137 -1.074224
116.700000 -1.074132 -1.074224
116.750000 -1.074129 -1.074224
116.800000 -1.074128 -1.074224
116.850000 -1.074130 -1.074224
116.900000 -1.074134 -1.074224
116.950000 -1.074140 -1.074224
117.000000 -1.074149 -1.074224
117.050000 -1.074159 -1.074224
117.100000 -1.074171 -1.074224
117.150000 -1.074184 -1.074224
117.200000 -1.074197 -1.074224
117.250000 -1.074212 -1.074224
117.300000 -1.074226 -1.074224
117.350000 -1.074240 -1.074224
117.400000 -1.074254 -1.074224
117.450000 -1.074267 -1.074224
117.500000 -1.074279 -1.074224
117.550000 -1.074289 -1.074224
117.600000 -1.074298 -1.074224
117.650000 -1.074304 -1.074224
117.700000 -1.074309 -1.074224
117.750000 -1.074311 -1.074224
117.800000 -1.074311 -1.074224
117.850000 -1.074309 -1.074224
117.900000 -1.074305 -1.074224
117.950000 -1.074299 -1.074224
118.000000 -1.074291 -1.074224
118.050000 -1.074281 -1.074224
118.100000 -1.074270 -1.074224
118.150000 -1.074258 -1.074224
118.200000 -1.074246 -1.074224
118.250000 -1.074232 -1.074224
118.300000 -1.074219 -1.074224
118.350000 -1.074206 -1.074224
118.400000 -1.074193 -1.074224
118.450000 -1.074182 -1.074224
118.500000 -1.074171 -1.074224
118.550000 -1.074162 -1.074224
118.600000 -1.074154 -1.074224
118.650000 -1.074149 -1.074224
118.700000 -1.074145 -1.074224
118.750000 -1.074143 -1.074224
118.800000 -1.074143 -1.074224
118.850000 -1.074145 -1.074224
118.900000 -1.074149 -1.074224
118.950000 -1.074155 -1.074224
119.000000 -1.074163 -1.074224
119.050000 -1.074172 -1.074224
119.100000 -1.074182 -1.074224
119.150000 -1.074194 -1.074224
119.200000 -1.074205 -1.074224
119.250000 -1.074218 -1.074224
119.300000 -1.074230 -1.074224
119.350000 -1.074242 -1.074224
119.400000 -1.074253 -1.074224
119.450000 -1.074264 -1.074224
119.500000 -1.074274 -1.074224
119.550000 -1.074282 -1.074224
119.600000 -1.074288 -1.074224
119.650000 -1.074293 -1.074224
119.700000 -1.074297 -1.074224
119.750000 -1.074298 -1.074224
119.800000 -1.074298 -1.074224
119.850000 -1.074295 -1.074224
119.900000 -1.074291 -1.074224
119.950000 -1.074285 -1.074224
120.000000 -1.074278 -1.074224
120.050000 -1.074270 -1.074224
120.100000 -1.074260 -1.074224
120.150000 -1.074250 -1.074224
120.200000 -1.074238 -1.074224
120.250000 -1.074227 -1.074224
120.300000 -1.074216 -1.074224
120.350000 -1.074205 -1.074224
120.400000 -1.074194 -1.074224
120.450000 -1.074185 -1.074224
120.500000 -1.074176 -1.074224
120.550000 -1.074169 -1.074224
120.600000 -1.074163 -1.074224
120.650000 -1.074159 -1.074224
120.700000 -1.074156 -1.074224
120.750000 -1.074155 -1.074224
120.800000 -1.074156 -1.074224
120.850000 -1.074158 -1.074224
120.900000 -1.074162 -1.074224
120.950000 -1.074168 -1.074224
121.000000 -1.074175 -1.074224
121.050000 -1.074183 -1.074224
121.100000 -1.074192 -1.074224
121.150000 -1.074202 -1.074224
121.200000 -1.074212 -1.074224
121.250000 -1.074222 -1.074224
121.300000 -1.074233 -1.074224
121.350000 -1.074243 -1.074224
121.400000 -1.074252 -1.074224
121.450000 -1.074261 -1.074224
121.500000 -1.074268 -1.074224
121.550000 -1.074275 -1.074224
121.600000 -1.074280 -1.074224
121.650000 -1.074284 -1.074224
121.700000 -1.074286 -1.074224
121.750000 -1.074287 -1.074224
121.800000 -1.074286 -1.074224
121.850000 -1.074283 -1.074224
121.900000 -1.074279 -1.074224
121.950000 -1.074274 -1.074224
122.000000 -1.074267 -1.074224
122.050000 -1.074260 -1.074224
122.100000 -1.074251 -1.074224
122.150000 -1.074242 -1.074224
122.200000 -1.074233 -1.074224
122.250000 -1.074223 -1.074224
122.300000 -1.074214 -1.074224
122.350000 -1.074205 -1.074224
122.400000 -1.074196 -1.074224
122.450000 -1.074188 -1.074224
122.500000 -1.074181 -1.074224
122.550000 -1.074175 -1.074224
122.600000 -1.074171 -1.074224
122.650000 -1.074168 -1.074224
122.700000 -1.074166 -1.074224
122.750000 -1.074166 -1.074224
122.800000 -1.074167 -1.074224
122.850000 -1.074169 -1.074224
122.900000 -1.074173 -1.074224
122.950000 -1.074178 -1.074224
123.000000 -1.074184 -1.074224
123.050000 -1.074192 -1.074224
123.100000 -1.074199 -1.074224
123.150000 -1.074208 -1.074224
123.200000 -1.074217 -1.074224
123.250000 -1.074225 -1.074224
123.300000 -1.074234 -1.074224
123.350000 -1.074242 -1.074224
123.400000 -1.074250 -1.074224
123.450000 -1.074257 -1.074224
123.500000 -1.074264 -1.074224
123.550000 -1.074269 -1.074224
123.600000 -1.074273 -1.074224
123.650000 -1.074276 -1.074224
123.700000 -1.074277 -1.074224
123.750000 -1.074277 -1.074224
123.800000 -1.074276 -1.074224
123.850000 -1.074273 -1.074224
123.900000 -1.074269 -1.074224
123.950000 -1.074265 -1.074224
124.000000 -1.074259 -1.074224
124.050000 -1.074252 -1.074224
124.100000 -1.074245 -1.074224
124.150000 -1.074237 -1.074224
124.200000 -1.074229 -1.074224
124.250000 -1.074221 -1.074224
124.300000 -1.074213 -1.074224
124.350000 -1.074205 -1.074224
124.400000 -1.074198 -1.074224
124.450000 -1.074191 -1.074224
124.500000 -1.074186 -1.074224
124.550000 -1.074181 -1.074224
124.600000 -1.074178 -1.074224
124.650000 -1.074176 -1.074224
124.700000 -1.074174 -1.074224
124.750000 -1.074175 -1.074224
124.800000 -1.074176 -1.074224
124.850000 -1.074179 -1.074224
124.900000 -1.074182 -1.074224
124.950000 -1.074187 -1.074224
125.000000 -1.074192 -1.074224
125.050000 -1.074199 -1.074224
125.100000 -1.074206 -1.074224
125.150000 -1.074213 -1.074224
125.200000 -1.074220 -1.074224
125.250000 -1.074228 -1.074224
125.300000 -1.074235 -1.074224
125.350000 -1.074242 -1.074224
125.400000 -1.074248 -1.074224
125.450000 -1.074254 -1.074224
125.500000 -1.074259 -1.074224
125.550000 -1.074263 -1.074224
125.600000 -1.074266 -1.074224
125.650000 -1.074268 -1.074224
125.700000 -1.074269 -1.074224
125.750000 -1.074269 -1.074224
125.800000 -1.074267 -1.074224
125.850000 -1.074265 -1.074224
125.900000 -1.074261 -1.074224
125.950000 -1.074257 -1.074224
126.000000 -1.074251 -1.074224
126.050000 -1.074246 -1.074224
126.100000 -1.074239 -1.074224
126.150000 -1.074233 -1.074224
126.200000 -1.074226 -1.074224
126.250000 -1.074219 -1.074224
126.300000 -1.074212 -1.074224
126.350000 -1.074206 -1.074224
126.400000 -1.074200 -1.074224
126.450000 -1.074195 -1.074224
126.500000 -1.074190 -1.074224
126.550000 -1.074187 -1.074224
126.600000 -1.074184 -1.074224
126.650000 -1.074182 -1.074224
126.700000 -1.074182 -1.074224
126.750000 -1.074182 -1.074224
126.800000 -1.074184 -1.074224
126.850000 -1.074186 -1.074224
126.900000 -1.074190 -1.074224
126.950000 -1.074194 -1.074224
127.000000 -1.074199 -1.074224
127.050000 -1.074204 -1.074224
127.100000 -1.074210 -1.074224
127.150000 -1.074217 -1.074224
127.200000 -1.074223 -1.074224
127.250000 -1.074229 -1.074224
127.300000 -1.074235 -1.074224
127.350000 -1.074241 -1.074224
127.400000 -1.074246 -1.074224
127.450000 -1.074251 -1.074224
127.500000 -1.074255 -1.074224
127.550000 -1.074258 -1.074224
127.600000 -1.074260 -1.074224
127.650000 -1.074262 -1.074224
127.700000 -1.074262 -1.074224
127.750000 -1.074261 -1.074224
127.800000 -1.074260 -1.074224
127.850000 -1.074257 -1.074224
127.900000 -1.074254 -1.074224
127.950000 -1.074250 -1.074224
128.000000 -1.074246 -1.074224
128.050000 -1.074240 -1.074224
128.100000 -1.074235 -1.074224
128.150000 -1.074229 -1.074224
128.200000 -1.074223 -1.074224
128.250000 -1.074218 -1.074224
128.300000 -1.074212 -1.074224
128.350000 -1.074207 -1.074224
128.400000 -1.074202 -1.074224
128.450000 -1.074198 -1.074224
128.500000 -1.074194 -1.074224
128.550000 -1.074191 -1.074224
128.600000 -1.074190 -1.074224
128.650000 -1.074188 -1.074224
128.700000 -1.074188 -1.074224
128.750000 -1.074189 -1.074224
128.800000 -1.074191 -1.074224
128.850000 -1.074193 -1.074224
128.900000 -1.074196 -1.074224
128.950000 -1.074200 -1.074224
129.000000 -1.074204 -1.074224
129.050000 -1.074209 -1.074224
129.100000 -1.074214 -1.074224
129.150000 -1.074219 -1.074224
129.200000 -1.074225 -1.074224
129.250000 -1.074230 -1.074224
129.300000 -1.074235 -1.074224
129.350000 -1.074240 -1.074224
129.400000 -1.074244 -1.074224
129.450000 -1.074248 -1.074224
129.500000 -1.074251 -1.074224
129.550000 -1.074254 -1.074224
129.600000 -1.074255 -1.074224
129.650000 -1.074256 -1.074224
129.700000 -1.074256 -1.074224
129.750000 -1.074255 -1.074224
129.800000 -1.074254 -1.074224
129.850000 -1.074251 -1.074224
129.900000 -1.074248 -1.074224
129.950000 -1.074245 -1.074224
130.000000 -1.074241 -1.074224
130.050000 -1.074236 -1.074224
130.100000 -1.074232 -1.074224
130.150000 -1.074227 -1.074224
130.200000 -1.074222 -1.074224
130.250000 -1.074217 -1.074224
130.300000 -1.074212 -1.074224
130.350000 -1.074208 -1.074224
130.400000 -1.074204 -1.074224
130.450000 -1.074201 -1.074224
130.500000 -1.074198 -1.074224
130.550000 -1.074196 -1.074224
130.600000 -1.074194 -1.074224
130.650000 -1.074194 -1.074224
130.700000 -1.074194 -1.074224
130.750000 -1.074195 -1.074224
130.800000 -1.074196 -1.074224
130.850000 -1.074198 -1.074224
130.900000 -1.074201 -1.074224
130.950000 -1.074205 -1.074224
131.000000 -1.074209 -1.074224
131.050000 -1.074213 -1.074224
131.100000 -1.074217 -1.074224
131.150000 -1.074222 -1.074224
131.200000 -1.074226 -1.074224
131.250000 -1.074231 -1.074224
131.300000 -1.074235 -1.074224
131.350000 -1.074239 -1.074224
131.400000 -1.074242 -1.074224
131.450000 -1.074245 -1.074224
131.500000 -1.074248 -1.074224
131.550000 -1.074250 -1.074224
131.600000 -1.074251 -1.074224
131.650000 -1.074251 -1.074224
131.700000 -1.074251 -1.074224
131.750000 -1.074250 -1.074224
131.800000 -1.074249 -1.074224
131.850000 -1.074246 -1.074224
131.900000 -1.074244 -1.074224
131.950000 -1.074241 -1.074224
132.000000 -1.074237 -1.074224
132.050000 -1.074233 -1.074224
132.100000 -1.074229 -1.074224
132.150000 -1.074225 -1.074224
132.200000 -1.074221 -1.074224
132.250000 -1.074217 -1.074224
132.300000 -1.074213 -1.074224
132.350000 -1.074209 -1.074224
132.400000 -1.074206 -1.074224
132.450000 -1.074203 -1.074224
132.500000 -1.074201 -1.074224
132.550000 -1.074200 -1.074224
132.600000 -1.074199 -1.074224
132.650000 -1.074198 -1.074224
132.700000 -1.074199 -1.074224
132.750000 -1.074199 -1.074224
132.800000 -1.074201 -1.074224
132.850000 -1.074203 -1.074224
132.900000 -1.074206 -1.074224
132.950000 -1.074209 -1.074224
133.000000 -1.074212 -1.074224
133.050000 -1.074216 -1.074224
133.100000 -1.074219 -1.074224
133.150000 -1.074223 -1.074224
133.200000 -1.074227 -1.074224
133.250000 -1.074231 -1.074224
133.300000 -1.074234 -1.074224
133.350000 -1.074238 -1.074224
133.400000 -1.074240 -1.074224
133.450000 -1.074243 -1.074224
133.500000 -1.074245 -1.074224
133.550000 -1.074246 -1.074224
133.600000 -1.074247 -1.074224
133.650000 -1.074247 -1.074224
133.700000 -1.074247 -1.074224
133.750000 -1.074246 -1.074224
133.800000 -1.074244 -1.074224
133.850000 -1.074242 -1.074224
133.900000 -1.074240 -1.074224
133.950000 -1.074237 -1.074224
134.000000 -1.074234 -1.074224
134.050000 -1.074230 -1.074224
134.100000 -1.074227 -1.074224
134.150000 -1.074223 -1.074224
134.200000 -1.074220 -1.074224
134.250000 -1.074216 -1.074224
134.300000 -1.074213 -1.074224
134.350000 -1.074210 -1.074224
134.400000 -1.074208 -1.074224
134.450000 -1.074206 -1.074224
134.500000 -1.074204 -1.074224
134.550000 -1.074203 -1.074224
134.600000 -1.074202 -1.074224
134.650000 -1.074202 -1.074224
134.700000 -1.074203 -1.074224
134.750000 -1.074204 -1.074224
134.800000 -1.074205 -1.074224
134.850000 -1.074207 -1.074224
134.900000 -1.074209 -1.074224
134.950000 -1.074212 -1.074224
135.000000 -1.074215 -1.074224
135.050000 -1.074218 -1.074224
135.100000 -1.074221 -1.074224
135.150000 -1.074224 -1.074224
135.200000 -1.074228 -1.074224
135.250000 -1.074231 -1.074224
135.300000 -1.074234 -1.074224
135.350000 -1.074236 -1.074224
135.400000 -1.074239 -1.074224
135.450000 -1.074240 -1.074224
135.500000 -1.074242 -1.074224
135.550000 -1.074243 -1.074224
135.600000 -1.074243 -1.074224
135.650000 -1.074243 -1.074224
135.700000 -1.074243 -1.074224
135.750000 -1.074242 -1.074224
135.800000 -1.074241 -1.074224
135.850000 -1.074239 -1.074224
135.900000 -1.074237 -1.074224
135.950000 -1.074234 -1.074224
136.000000 -1.074231 -1.074224
136.050000 -1.074228 -1.074224
136.100000 -1.074225 -1.074224
136.150000 -1.074222 -1.074224
136.200000 -1.074219 -1.074224
136.250000 -1.074217 -1.074224
136.300000 -1.074214 -1.074224
136.350000 -1.074212 -1.074224
136.400000 -1.074210 -1.074224
136.450000 -1.074208 -1.074224
136.500000 -1.074207 -1.074224
136.550000 -1.074206 -1.074224
136.600000 -1.074205 -1.074224
136.650000 -1.074205 -1.074224
136.700000 -1.074206 -1.074224
136.750000 -1.074207 -1.074224
136.800000 -1.074208 -1.074224
136.850000 -1.074210 -1.074224
136.900000 -1.074212 -1.074224
136.950000 -1.074215 -1.074224
137.000000 -1.074217 -1.074224
137.050000 -1.074220 -1.074224
137.100000 -1.074223 -1.074224
137.150000 -1.074225 -1.074224
137.200000 -1.074228 -1.074224
137.250000 -1.074231 -1.074224
137.300000 -1.074233 -1.074224
137.350000 -1.074235 -1.074224
137.400000 -1.074237 -1.074224
137.450000 -1.074238 -1.074224
137.500000 -1.074239 -1.074224
137.550000 -1.074240 -1.074224
137.600000 -1.074240 -1.074224
137.650000 -1.074240 -1.074224
137.700000 -1.074240 -1.074224
137.750000 -1.074239 -1.074224
137.800000 -1.074237 -1.074224
137.850000 -1.074236 -1.074224
137.900000 -1.074234 -1.074224
137.950000 -1.074232 -1.074224
138.000000 -1.074229 -1.074224
138.050000 -1.074227 -1.074224
138.100000 -1.074224 -1.074224
138.150000 -1.074222 -1.074224
138.200000 -1.074219 -1.074224
138.250000 -1.074217 -1.074224
138.300000 -1.074215 -1.074224
138.350000 -1.074213 -1.074224
138.400000 -1.074211 -1.074224
138.450000 -1.074210 -1.074224
138.500000 -1.074209 -1.074224
138.550000 -1.074208 -1.074224
138.600000 -1.074208 -1.074224
138.650000 -1.074208 -1.074224
138.700000 -1.074209 -1.074224
138.750000 -1.074210 -1.074224
138.800000 -1.074211 -1.074224
138.850000 -1.074213 -1.074224
138.900000 -1.074215 -1.074224
138.950000 -1.074217 -1.074224
139.000000 -1.074219 -1.074224
139.050000 -1.074221 -1.074224
139.100000 -1.074223 -1.074224
139.150000 -1.074226 -1.074224
139.200000 -1.074228 -1.074224
139.250000 -1.074230 -1.074224
139.300000 -1.074232 -1.074224
139.350000 -1.074234 -1.074224
139.400000 -1.074235 -1.074224
139.450000 -1.074236 -1.074224
139.500000 -1.074237 -1.074224
139.550000 -1.074238 -1.074224
139.600000 -1.074238 -1.074224
139.650000 -1.074238 -1.074224
139.700000 -1.074237 -1.074224
139.750000 -1.074236 -1.074224
139.800000 -1.074235 -1.074224
139.850000 -1.074233 -1.074224
139.900000 -1.074232 -1.074224
139.950000 -1.074230 -1.074224
140.000000 -1.074228 -1.074224
140.050000 -1.074226 -1.074224
140.100000 -1.074223 -1.074224
140.150000 -1.074221 -1.074224
140.200000 -1.074219 -1.074224
140.250000 -1.074217 -1.074224
140.300000 -1.074216 -1.074224
140.350000 -1.074214 -1.074224
140.400000 -1.074213 -1.074224
140.450000 -1.074212 -1.074224
140.500000 -1.074211 -1.074224
140.550000 -1.074211 -1.074224
140.600000 -1.074211 -1.074224
140.650000 -1.074211 -1.074224
140.700000 -1.074211 -1.074224
140.750000 -1.074212 -1.074224
140.800000 -1.074213 -1.074224
140.850000 -1.074215 -1.074224
140.900000 -1.074217 -1.074224
140.950000 -1.074218 -1.074224
141.000000 -1.074220 -1.074224
141.050000 -1.074222 -1.074224
141.100000 -1.074224 -1.074224
141.150000 -1.074226 -1.074224
141.200000 -1.074228 -1.074224
141.250000 -1.074230 -1.074224
141.300000 -1.074231 -1.074224
141.350000 -1.074233 -1.074224
141.400000 -1.074234 -1.074224
141.450000 -1.074235 -1.074224
141.500000 -1.074235 -1.074224
141.550000 -1.074236 -1.074224
141.600000 -1.074236 -1.074224
141.650000 -1.074235 -1.074224
141.700000 -1.074235 -1.074224
141.750000 -1.074234 -1.074224
141.800000 -1.074233 -1.074224
141.850000 -1.074231 -1.074224
141.900000 -1.074230 -1.074224
141.950000 -1.074228 -1.074224
142.000000 -1.074226 -1.074224
142.050000 -1.074225 -1.074224
142.100000 -1.074223 -1.074224
142.150000 -1.074221 -1.074224
142.200000 -1.074219 -1.074224
142.250000 -1.074218 -1.074224
142.300000 -1.074216 -1.074224
142.350000 -1.074215 -1.074224
142.400000 -1.074214 -1.074224
142.450000 -1.074213 -1.074224
142.500000 -1.074213 -1.074224
142.550000 -1.074213 -1.074224
142.600000 -1.074213 -1.074224
142.650000 -1.074213 -1.074224
142.700000 -1.074214 -1.074224
142.750000 -1.074214 -1.074224
142.800000 -1.074215 -1.074224
142.850000 -1.074217 -1.074224
142.900000 -1.074218 -1.074224
142.950000 -1.074220 -1.074224
143.000000 -1.074221 -1.074224
143.050000 -1.074223 -1.074224
143.100000 -1.074225 -1.074224
143.150000 -1.074226 -1.074224
143.200000 -1.074228 -1.074224
143.250000 -1.074229 -1.074224
143.300000 -1.074231 -1.074224
143.350000 -1.074232 -1.074224
143.400000 -1.074233 -1.074224
143.450000 -1.074233 -1.074224
143.500000 -1.074234 -1.074224
143.550000 -1.074234 -1.074224
143.600000 -1.074234 -1.074224
143.650000 -1.074233 -1.074224
143.700000 -1.074233 -1.074224
143.750000 -1.074232 -1.074224
143.800000 -1.074231 -1.074224
143.850000 -1.074230 -1.074224
143.900000 -1.074228 -1.074224
143.950000 -1.074227 -1.074224
144.000000 -1.074226 -1.074224
144.050000 -1.074224 -1.074224
144.100000 -1.074222 -1.074224
144.150000 -1.074221 -1.074224
144.200000 -1.074220 -1.074224
144.250000 -1.074218 -1.074224
144.300000 -1.074217 -1.074224
144.350000 -1.074216 -1.074224
144.400000 -1.074215 -1.074224
144.450000 -1.074215 -1.074224
144.500000 -1.074214 -1.074224
144.550000 -1.074214 -1.074224
144.600000 -1.074214 -1.074224
144.650000 -1.074215 -1.074224
144.700000 -1.074215 -1.074224
144.750000 -1.074216 -1.074224
144.800000 -1.074217 -1.074224
144.850000 -1.074218 -1.074224
144.900000 -1.074219 -1.074224
144.950000 -1.074221 -1.074224
145.000000 -1.074222 -1.074224
145.050000 -1.074224 -1.074224
145.100000 -1.074225 -1.074224
145.150000 -1.074226 -1.074224
145.200000 -1.074228 -1.074224
145.250000 -1.074229 -1.074224
145.300000 -1.074230 -1.074224
145.350000 -1.074231 -1.074224
145.400000 -1.074231 -1.074224
145.450000 -1.074232 -1.074224
145.500000 -1.074232 -1.074224
145.550000 -1.074232 -1.074224
145.600000 -1.074232 -1.074224
145.650000 -1.074232 -1.074224
145.700000 -1.074231 -1.074224
145.750000 -1.074230 -1.074224
145.800000 -1.074230 -1.074224
145.850000 -1.074229 -1.074224
145.900000 -1.074227 -1.074224
145.950000 -1.074226 -1.074224
146.000000 -1.074225 -1.074224
146.050000 -1.074223 -1.074224
146.100000 -1.074222 -1.074224
146.150000 -1.074221 -1.074224
146.200000 -1.074220 -1.074224
146.250000 -1.074219 -1.074224
146.300000 -1.074218 -1.074224
146.350000 -1.074217 -1.074224
146.400000 -1.074216 -1.074224
146.450000 -1.074216 -1.074224
146.500000 -1.074216 -1.074224
146.550000 -1.074216 -1.074224
146.600000 -1.074216 -1.074224
146.650000 -1.074216 -1.074224
146.700000 -1.074217 -1.074224
146.750000 -1.074217 -1.074224
146.800000 -1.074218 -1.074224
146.850000 -1.074219 -1.074224
146.900000 -1.074220 -1.074224
146.950000 -1.074222 -1.074224
147.000000 -1.074223 -1.074224
147.050000 -1.074224 -1.074224
147.100000 -1.074225 -1.074224
147.150000 -1.074226 -1.074224
147.200000 -1.074227 -1.074224
147.250000 -1.074228 -1.074224
147.300000 -1.074229 -1.074224
147.350000 -1.074230 -1.074224
147.400000 -1.074230 -1.074224
147.450000 -1.074231 -1.074224
147.500000 -1.074231 -1.074224
147.550000 -1.074231 -1.074224
147.600000 -1.074231 -1.074224
147.650000 -1.074230 -1.074224
147.700000 -1.074230 -1.074224
147.750000 -1.074229 -1.074224
147.800000 -1.074228 -1.074224
147.850000 -1.074227 -1.074224
147.900000 -1.074226 -1.074224
147.950000 -1.074225 -1.074224
148.000000 -1.074224 -1.074224
148.050000 -1.074223 -1.074224
148.100000 -1.074222 -1.074224
148.150000 -1.074221 -1.074224
148.200000 -1.074220 -1.074224
148.250000 -1.074219 -1.074224
148.300000 -1.074218 -1.074224
148.350000 -1.074218 -1.074224
148.400000 -1.074217 -1.074224
148.450000 -1.074217 -1.074224
148.500000 -1.074217 -1.074224
148.550000 -1.074217 -1.074224
148.600000 -1.074217 -1.074224
148.650000 -1.074217 -1.074224
148.700000 -1.074218 -1.074224
148.750000 -1.074219 -1.074224
148.800000 -1.074219 -1.074224
148.850000 -1.074220 -1.074224
148.900000 -1.074221 -1.074224
148.950000 -1.074222 -1.074224
149.000000 -1.074223 -1.074224
149.050000 -1.074224 -1.074224
149.100000 -1.074225 -1.074224
149.150000 -1.074226 -1.074224
149.200000 -1.074227 -1.074224
149.250000 -1.074228 -1.074224
149.300000 -1.074229 -1.074224
149.350000 -1.074229 -1.074224
149.400000 -1.074230 -1.074224
149.450000 -1.074230 -1.074224
149.500000 -1.074230 -1.074224
149.550000 -1.074230 -1.074224
149.600000 -1.074230 -1.074224
149.650000 -1.074229 -1.074224
149.700000 -1.074229 -1.074224
149.750000 -1.074228 -1.074224
149.800000 -1.074227 -1.074224
149.850000 -1.074227 -1.074224
149.900000 -1.074226 -1.074224
149.950000 -1.074225 -1.074224
150.000000 -1.074224 -1.074224
150.050000 -1.074223 -1.074224
150.100000 -1.074222 -1.074224
150.150000 -1.074221 -1.074224
150.200000 -1.074220 -1.074224
150.250000 -1.074220 -1.074224
150.300000 -1.074219 -1.074224
150.350000 -1.074219 -1.074224
150.400000 -1.074218 -1.074224
150.450000 -1.074218 -1.074224
150.500000 -1.074218 -1.074224
150.550000 -1.074218 -1.074224
150.600000 -1.074218 -1.074224
150.650000 -1.074219 -1.074224
150.700000 -1.074219 -1.074224
150.750000 -1.074220 -1.074224
150.800000 -1.074220 -1.074224
150.850000 -1.074221 -1.074224
150.900000 -1.074222 -1.074224
150.950000 -1.074223 -1.074224
151.000000 -1.074224 -1.074224
151.050000 -1.074224 -1.074224
151.100000 -1.074225 -1.074224
151.150000 -1.074226 -1.074224
151.200000 -1.074227 -1.074224
151.250000 -1.074227 -1.074224
151.300000 -1.074228 -1.074224
151.350000 -1.074228 -1.074224
151.400000 -1.074229 -1.074224
151.450000 -1.074229 -1.074224
151.500000 -1.074229 -1.074224
151.550000 -1.074229 -1.074224
151.600000 -1.074229 -1.074224
151.650000 -1.074228 -1.074224
151.700000 -1.074228 -1.074224
151.750000 -1.074227 -1.074224
151.800000 -1.074227 -1.074224
151.850000 -1.074226 -1.074224
151.900000 -1.074225 -1.074224
151.950000 -1.074224 -1.074224
152.000000 -1.074224 -1.074224
152.050000 -1.074223 -1.074224
152.100000 -1.074222 -1.074224
152.150000 -1.074221 -1.074224
152.200000 -1.074221 -1.074224
152.250000 -1.074220 -1.074224
152.300000 -1.074220 -1.074224
152.350000 -1.074219 -1.074224
152.400000 -1.074219 -1.074224
152.450000 -1.074219 -1.074224
152.500000 -1.074219 -1.074224
152.550000 -1.074219 -1.074224
152.600000 -1.074219 -1.074224
152.650000 -1.074219 -1.074224
152.700000 -1.074220 -1.074224
152.750000 -1.074220 -1.074224
152.800000 -1.074221 -1.074224
152.850000 -1.074222 -1.074224
152.900000 -1.074222 -1.074224
152.950000 -1.074223 -1.074224
153.000000 -1.074224 -1.074224
153.050000 -1.074225 -1.074224
153.100000 -1.074225 -1.074224
153.150000 -1.074226 -1.074224
153.200000 -1.074227 -1.074224
153.250000 -1.074227 -1.074224
153.300000 -1.074227 -1.074224
153.350000 -1.074228 -1.074224
153.400000 -1.074228 -1.074224
153.450000 -1.074228 -1.074224
153.500000 -1.074228 -1.074224
153.550000 -1.074228 -1.074224
153.600000 -1.074228 -1.074224
153.650000 -1.074227 -1.074224
153.700000 -1.074227 -1.074224
153.750000 -1.074227 -1.074224
153.800000 -1.074226 -1.074224
153.850000 -1.074225 -1.074224
153.900000 -1.074225 -1.074224
153.950000 -1.074224 -1.074224
154.000000 -1.074223 -1.074224
154.050000 -1.074223 -1.074224
154.100000 -1.074222 -1.074224
154.150000 -1.074221 -1.074224
154.200000 -1.074221 -1.074224
154.250000 -1.074220 -1.074224
154.300000 -1.074220 -1.074224
154.350000 -1.074220 -1.074224
154.400000 -1.074220 -1.074224
154.450000 -1.074220 -1.074224
154.500000 -1.074220 -1.074224
154.550000 -1.074220 -1.074224
154.600000 -1.074220 -1.074224
154.650000 -1.074220 -1.074224
154.700000 -1.074221 -1.074224
154.750000 -1.074221 -1.074224
154.800000 -1.074222 -1.074224
154.850000 -1.074222 -1.074224
154.900000 -1.074223 -1.074224
154.950000 -1.074223 -1.074224
155.000000 -1.074224 -1.074224
155.050000 -1.074225 -1.074224
155.100000 -1.074225 -1.074224
155.150000 -1.074226 -1.074224
155.200000 -1.074226 -1.074224
155.250000 -1.074227 -1.074224
155.300000 -1.074227 -1.074224
155.350000 -1.074227 -1.074224
155.400000 -1.074227 -1.074224
155.450000 -1.074227 -1.074224
155.500000 -1.074227 -1.074224
155.550000 -1.074227 -1.074224
155.600000 -1.074227 -1.074224
155.650000 -1.074227 -1.074224
155.700000 -1.074226 -1.074224
155.750000 -1.074226 -1.074224
155.800000 -1.074225 -1.074224
155.850000 -1.074225 -1.074224
155.900000 -1.074224 -1.074224
155.950000 -1.074224 -1.074224
156.000000 -1.074223 -1.074224
156.050000 -1.074223 -1.074224
156.100000 -1.074222 -1.074224
156.150000 -1.074222 -1.074224
156.200000 -1.074221 -1.074224
156.250000 -1.074221 -1.074224
156.300000 -1.074221 -1.074224
156.350000 -1.074220 -1.074224
156.400000 -1.074220 -1.074224
156.450000 -1.074220 -1.074224
156.500000 -1.074220 -1.074224
156.550000 -1.074220 -1.074224
156.600000 -1.074221 -1.074224
156.650000 -1.074221 -1.074224
156.700000 -1.074221 -1.074224
156.750000 -1.074222 -1.074224
156.800000 -1.074222 -1.074224
156.850000 -1.074223 -1.074224
156.900000 -1.074223 -1.074224
156.950000 -1.074224 -1.074224
157.000000 -1.074224 -1.074224
157.050000 -1.074225 -1.074224
157.100000 -1.074225 -1.074224
157.150000 -1.074226 -1.074224
157.200000 -1.074226 -1.074224
157.250000 -1.074226 -1.074224
157.300000 -1.074227 -1.074224
157.350000 -1.074227 -1.074224
157.400000 -1.074227 -1.074224
157.450000 -1.074227 -1.074224
157.500000 -1.074227 -1.074224
157.550000 -1.074227 -1.074224
157.600000 -1.074226 -1.074224
157.650000 -1.074226 -1.074224
157.700000 -1.074226 -1.074224
157.750000 -1.074225 -1.074224
157.800000 -1.074225 -1.074224
157.850000 -1.074225 -1.074224
157.900000 -1.074224 -1.074224
157.950000 -1.074224 -1.074224
158.000000 -1.074223 -1.074224
158.050000 -1.074223 -1.074224
158.100000 -1.074222 -1.074224
158.150000 -1.074222 -1.074224
158.200000 -1.074221 -1.074224
158.250000 -1.074221 -1.074224
158.300000 -1.074221 -1.074224
158.350000 -1.074221 -1.074224
158.400000 -1.074221 -1.074224
158.450000 -1.074221 -1.074224
158.500000 -1.074221 -1.074224
158.550000 -1.074221 -1.074224
158.600000 -1.074221 -1.074224
158.650000 -1.074221 -1.074224
158.700000 -1.074222 -1.074224
158.750000 -1.074222 -1.074224
158.800000 -1.074222 -1.074224
158.850000 -1.074223 -1.074224
158.900000 -1.074223 -1.074224
158.950000 -1.074224 -1.074224
159.000000 -1.074224 -1.074224
159.050000 -1.074225 -1.074224
159.100000 -1.074225 -1.074224
159.150000 -1.074225 -1.074224
159.200000 -1.074226 -1.074224
159.250000 -1.074226 -1.074224
159.300000 -1.074226 -1.074224
159.350000 -1.074226 -1.074224
159.400000 -1.074226 -1.074224
159.450000 -1.074226 -1.074224
159.500000 -1.074226 -1.074224
159.550000 -1.074226 -1.074224
159.600000 -1.074226 -1.074224
159.650000 -1.074226 -1.074224
159.700000 -1.074225 -1.074224
159.750000 -1.074225 -1.074224
159.800000 -1.074225 -1.074224
159.850000 -1.074224 -1.074224
159.900000 -1.074224 -1.074224
159.950000 -1.074223 -1.074224
160.000000 -1.074223 -1.074224
160.050000 -1.074223 -1.074224
160.100000 -1.074222 -1.074224
160.150000 -1.074222 -1.074224
160.200000 -1.074222 -1.074224
160.250000 -1.074221 -1.074224
160.300000 -1.074221 -1.074224
160.350000 -1.074221 -1.074224
160.400000 -1.074221 -1.074224
160.450000 -1.074221 -1.074224
160.500000 -1.074221 -1.074224
160.550000 -1.074221 -1.074224
160.600000 -1.074222 -1.074224
160.650000 -1.074222 -1.074224
160.700000 -1.074222 -1.074224
160.750000 -1.074222 -1.074224
160.800000 -1.074223 -1.074224
160.850000 -1.074223 -1.074224
160.900000 -1.074224 -1.074224
160.950000 -1.074224 -1.074224
161.000000 -1.074224 -1.074224
161.050000 -1.074225 -1.074224
161.100000 -1.074225 -1.074224
161.150000 -1.074225 -1.074224
161.200000 -1.074225 -1.074224
161.250000 -1.074226 -1.074224
161.300000 -1.074226 -1.074224
161.350000 -1.074226 -1.074224
161.400000 -1.074226 -1.074224
161.450000 -1.074226 -1.074224
161.500000 -1.074226 -1.074224
161.550000 -1.074226 -1.074224
161.600000 -1.074226 -1.074224
161.650000 -1.074225 -1.074224
161.700000 -1.074225 -1.074224
161.750000 -1.074225 -1.074224
161.800000 -1.074224 -1.074224
161.850000 -1.074224 -1.074224
161.900000 -1.074224 -1.074224
161.950000 -1.074223 -1.074224
162.000000 -1.074223 -1.074224
162.050000 -1.074223 -1.074224
162.100000 -1.074222 -1.074224
162.150000 -1.074222 -1.074224
162.200000 -1.074222 -1.074224
162.250000 -1.074222 -1.074224
162.300000 -1.074222 -1.074224
162.350000 -1.074222 -1.074224
162.400000 -1.074222 -1.074224
162.450000 -1.074222 -1.074224
162.500000 -1.074222 -1.074224
162.550000 -1.074222 -1.074224
162.600000 -1.074222 -1.074224
162.650000 -1.074222 -1.074224
162.700000 -1.074222 -1.074224
162.750000 -1.074223 -1.074224
162.800000 -1.074223 -1.074224
162.850000 -1.074223 -1.074224
162.900000 -1.074224 -1.074224
162.950000 -1.074224 -1.074224
163.000000 -1.074224 -1.074224
163.050000 -1.074225 -1.074224
163.100000 -1.074225 -1.074224
163.150000 -1.074225 -1.074224
163.200000 -1.074225 -1.074224
163.250000 -1.074225 -1.074224
163.300000 -1.074226 -1.074224
163.350000 -1.074226 -1.074224
163.400000 -1.074226 -1.074224
163.450000 -1.074226 -1.074224
163.500000 -1.074225 -1.074224
163.550000 -1.074225 -1.074224
163.600000 -1.074225 -1.074224
163.650000 -1.074225 -1.074224
163.700000 -1.074225 -1.074224
163.750000 -1.074224 -1.074224
163.800000 -1.074224 -1.074224
163.850000 -1.074224 -1.074224
163.900000 -1.074224 -1.074224
163.950000 -1.074223 -1.074224
164.000000 -1.074223 -1.074224
164.050000 -1.074223 -1.074224
164.100000 -1.074223 -1.074224
164.150000 -1.074222 -1.074224
164.200000 -1.074222 -1.074224
164.250000 -1.074222 -1.074224
164.300000 -1.074222 -1.074224
164.350000 -1.074222 -1.074224
164.400000 -1.074222 -1.074224
164.450000 -1.074222 -1.074224
164.500000 -1.074222 -1.074224
164.550000 -1.074222 -1.074224
164.600000 -1.074222 -1.074224
164.650000 -1.074222 -1.074224
164.700000 -1.074223 -1.074224
164.750000 -1.074223 -1.074224
164.800000 -1.074223 -1.074224
164.850000 -1.074223 -1.074224
164.900000 -1.074224 -1.074224
164.950000 -1.074224 -1.074224
165.000000 -1.074224 -1.074224
165.050000 -1.074225 -1.074224
165.100000 -1.074225 -1.074224
165.150000 -1.074225 -1.074224
165.200000 -1.074225 -1.074224
165.250000 -1.074225 -1.074224
165.300000 -1.074225 -1.074224
165.350000 -1.074225 -1.074224
165.400000 -1.074225 -1.074224
165.450000 -1.074225 -1.074224
165.500000 -1.074225 -1.074224
165.550000 -1.074225 -1.074224
165.600000 -1.074225 -1.074224
165.650000 -1.074225 -1.074224
165.700000 -1.074224 -1.074224
165.750000 -1.074224 -1.074224
165.800000 -1.074224 -1.074224
165.850000 -1.074224 -1.074224
165.900000 -1.074224 -1.074224
165.950000 -1.074223 -1.074224
166.000000 -1.074223 -1.074224
166.050000 -1.074223 -1.074224
166.100000 -1.074223 -1.074224
166.150000 -1.074222 -1.074224
166.200000 -1.074222 -1.074224
166.250000 -1.074222 -1.074224
166.300000 -1.074222 -1.074224
166.350000 -1.074222 -1.074224
166.400000 -1.074222 -1.074224
166.450000 -1.074222 -1.074224
166.500000 -1.074222 -1.074224
166.550000 -1.074222 -1.074224
166.600000 -1.074223 -1.074224
166.650000 -1.074223 -1.074224
166.700000 -1.074223 -1.074224
166.750000 -1.074223 -1.074224
166.800000 -1.074223 -1.074224
166.850000 -1.074224 -1.074224
166.900000 -1.074224 -1.074224
166.950000 -1.074224 -1.074224
167.000000 -1.074224 -1.074224
167.050000 -1.074224 -1.074224
167.100000 -1.074225 -1.074224
167.150000 -1.074225 -1.074224
167.200000 -1.074225 -1.074224
167.250000 -1.074225 -1.074224
167.300000 -1.074225 -1.074224
167.350000 -1.074225 -1.074224
167.400000 -1.074225 -1.074224
167.450000 -1.074225 -1.074224
167.500000 -1.074225 -1.074224
167.550000 -1.074225 -1.074224
167.600000 -1.074225 -1.074224
167.650000 -1.074224 -1.074224
167.700000 -1.074224 -1.074224
167.750000 -1.074224 -1.074224
167.800000 -1.074224 -1.074224
167.850000 -1.074224 -1.074224
167.900000 -1.074223 -1.074224
167.950000 -1.074223 -1.074224
168.000000 -1.074223 -1.074224
168.050000 -1.074223 -1.074224
168.100000 -1.074223 -1.074224
168.150000 -1.074223 -1.074224
168.200000 -1.074222 -1.074224
168.250000 -1.074222 -1.074224
168.300000 -1.074222 -1.074224
168.350000 -1.074222 -1.074224
168.400000 -1.074222 -1.074224
168.450000 -1.074222 -1.074224
168.500000 -1.074223 -1.074224
168.550000 -1.074223 -1.074224
168.600000 -1.074223 -1.074224
168.650000 -1.074223 -1.074224
168.700000 -1.074223 -1.074224
168.750000 -1.074223 -1.074224
168.800000 -1.074223 -1.074224
168.850000 -1.074224 -1.074224
168.900000 -1.074224 -1.074224
168.950000 -1.074224 -1.074224
169.000000 -1.074224 -1.074224
169.050000 -1.074224 -1.074224
169.100000 -1.074225 -1.074224
169.150000 -1.074225 -1.074224
169.200000 -1.074225 -1.074224
169.250000 -1.074225 -1.074224
169.300000 -1.074225 -1.074224
169.350000 -1.074225 -1.074224
169.400000 -1.074225 -1.074224
169.450000 -1.074225 -1.074224
169.500000 -1.074225 -1.074224
169.550000 -1.074225 -1.074224
169.600000 -1.074224 -1.074224
169.650000 -1.074224 -1.074224
169.700000 -1.074224 -1.074224
169.750000 -1.074224 -1.074224
169.800000 -1.074224 -1.074224
169.850000 -1.074224 -1.074224
169.900000 -1.074223 -1.074224
169.950000 -1.074223 -1.074224
170.000000 -1.074223 -1.074224
170.050000 -1.074223 -1.074224
170.100000 -1.074223 -1.074224
170.150000 -1.074223 -1.074224
170.200000 -1.074223 -1.074224
170.250000 -1.074223 -1.074224
170.300000 -1.074223 -1.074224
170.350000 -1.074223 -1.074224
170.400000 -1.074223 -1.074224
170.450000 -1.074223 -1.074224
170.500000 -1.074223 -1.074224
170.550000 -1.074223 -1.074224
170.600000 -1.074223 -1.074224
170.650000 -1.074223 -1.074224
170.700000 -1.074223 -1.074224
170.750000 -1.074223 -1.074224
170.800000 -1.074224 -1.074224
170.850000 -1.074224 -1.074224
170.900000 -1.074224 -1.074224
170.950000 -1.074224 -1.074224
171.000000 -1.074224 -1.074224
171.050000 -1.074224 -1.074224
171.100000 -1.074224 -1.074224
171.150000 -1.074225 -1.074224
171.200000 -1.074225 -1.074224
171.250000 -1.074225 -1.074224
171.300000 -1.074225 -1.074224
171.350000 -1.074225 -1.074224
171.400000 -1.074225 -1.074224
171.450000 -1.074225 -1.074224
171.500000 -1.074224 -1.074224
171.550000 -1.074224 -1.074224
171.600000 -1.074224 -1.074224
171.650000 -1.074224 -1.074224
171.700000 -1.074224 -1.074224
171.750000 -1.074224 -1.074224
171.800000 -1.074224 -1.074224
171.850000 -1.074224 -1.074224
171.900000 -1.074223 -1.074224
171.950000 -1.074223 -1.074224
172.000000 -1.074223 -1.074224
172.050000 -1.074223 -1.074224
172.100000 -1.074223 -1.074224
172.150000 -1.074223 -1.074224
172.200000 -1.074223 -1.074224
172.250000 -1.074223 -1.074224
172.300000 -1.074223 -1.074224
172.350000 -1.074223 -1.074224
172.400000 -1.074223 -1.074224
172.450000 -1.074223 -1.074224
172.500000 -1.074223 -1.074224
172.550000 -1.074223 -1.074224
172.600000 -1.074223 -1.074224
172.650000 -1.074223 -1.074224
172.700000 -1.074223 -1.074224
172.750000 -1.074223 -1.074224
172.800000 -1.074224 -1.074224
172.850000 -1.074224 -1.074224
172.900000 -1.074224 -1.074224
172.950000 -1.074224 -1.074224
173.000000 -1.074224 -1.074224
173.050000 -1.074224 -1.074224
173.100000 -1.074224 -1.074224
173.150000 -1.074224 -1.074224
173.200000 -1.074224 -1.074224
173.250000 -1.074224 -1.074224
173.300000 -1.074224 -1.074224
173.350000 -1.074224 -1.074224
173.400000 -1.074224 -1.074224
173.450000 -1.074224 -1.074224
173.500000 -1.074224 -1.074224
173.550000 -1.074224 -1.074224
173.600000 -1.074224 -1.074224
173.650000 -1.074224 -1.074224
173.700000 -1.074224 -1.074224
173.750000 -1.074224 -1.074224
173.800000 -1.074224 -1.074224
173.850000 -1.074224 -1.074224
173.900000 -1.074223 -1.074224
173.950000 -1.074223 -1.074224
174.000000 -1.074223 -1.074224
174.050000 -1.074223 -1.074224
174.100000 -1.074223 -1.074224
174.150000 -1.074223 -1.074224
174.200000 -1.074223 -1.074224
174.250000 -1.074223 -1.074224
174.300000 -1.074223 -1.074224
174.350000 -1.074223 -1.074224
174.400000 -1.074223 -1.074224
174.450000 -1.074223 -1.074224
174.500000 -1.074223 -1.074224
174.550000 -1.074223 -1.074224
174.600000 -1.074223 -1.074224
174.650000 -1.074223 -1.074224
174.700000 -1.074223 -1.074224
174.750000 -1.074224 -1.074224
174.800000 -1.074224 -1.074224
174.850000 -1.074224 -1.074224
174.900000 -1.074224 -1.074224
174.950000 -1.074224 -1.074224
175.000000 -1.074224 -1.074224
175.050000 -1.074224 -1.074224
175.100000 -1.074224 -1.074224
175.150000 -1.074224 -1.074224
175.200000 -1.074224 -1.074224
175.250000 -1.074224 -1.074224
175.300000 -1.074224 -1.074224
175.350000 -1.074224 -1.074224
175.400000 -1.074224 -1.074224
175.450000 -1.074224 -1.074224
175.500000 -1.074224 -1.074224
175.550000 -1.074224 -1.074224
175.600000 -1.074224 -1.074224
175.650000 -1.074224 -1.074224
175.700000 -1.074224 -1.074224
175.750000 -1.074224 -1.074224
175.800000 -1.074224 -1.074224
175.850000 -1.074224 -1.074224
175.900000 -1.074223 -1.074224
175.950000 -1.074223 -1.074224
176.000000 -1.074223 -1.074224
176.050000 -1.074223 -1.074224
176.100000 -1.074223 -1.074224
176.150000 -1.074223 -1.074224
176.200000 -1.074223 -1.074224
176.250000 -1.074223 -1.074224
176.300000 -1.074223 -1.074224
176.350000 -1.074223 -1.074224
176.400000 -1.074223 -1.074224
176.450000 -1.074223 -1.074224
176.500000 -1.074223 -1.074224
176.550000 -1.074223 -1.074224
176.600000 -1.074223 -1.074224
176.650000 -1.074223 -1.074224
176.700000 -1.074223 -1.074224
176.750000 -1.074224 -1.074224
176.800000 -1.074224 -1.074224
176.850000 -1.074224 -1.074224
176.900000 -1.074224 -1.074224
176.950000 -1.074224 -1.074224
177.000000 -1.074224 -1.074224
177.050000 -1.074224 -1.074224
177.100000 -1.074224 -1.074224
177.150000 -1.074224 -1.074224
177.200000 -1.074224 -1.074224
177.250000 -1.074224 -1.074224
177.300000 -1.074224 -1.074224
177.350000 -1.074224 -1.074224
177.400000 -1.074224 -1.074224
177.450000 -1.074224 -1.074224
177.500000 -1.074224 -1.074224
177.550000 -1.074224 -1.074224
177.600000 -1.074224 -1.074224
177.650000 -1.074224 -1.074224
177.700000 -1.074224 -1.074224
177.750000 -1.074224 -1.074224
177.800000 -1.074224 -1.074224
177.850000 -1.074223 -1.074224
177.900000 -1.074223 -1.074224
177.950000 -1.074223 -1.074224
178.000000 -1.074223 -1.074224
178.050000 -1.074223 -1.074224
178.100000 -1.074223 -1.074224
178.150000 -1.074223 -1.074224
178.200000 -1.074223 -1.074224
178.250000 -1.074223 -1.074224
178.300000 -1.074223 -1.074224
178.350000 -1.074223 -1.074224
178.400000 -1.074223 -1.074224
178.450000 -1.074223 -1.074224
178.500000 -1.074223 -1.074224
178.550000 -1.074223 -1.074224
178.600000 -1.074223 -1.074224
178.650000 -1.074223 -1.074224
178.700000 -1.074224 -1.074224
178.750000 -1.074224 -1.074224
178.800000 -1.074224 -1.074224
178.850000 -1.074224 -1.074224
178.900000 -1.074224 -1.074224
178.950000 -1.074224 -1.074224
179.000000 -1.074224 -1.074224
179.050000 -1.074224 -1.074224
179.100000 -1.074224 -1.074224
179.150000 -1.074224 -1.074224
179.200000 -1.074224 -1.074224
179.250000 -1.074224 -1.074224
179.300000 -1.074224 -1.074224
179.350000 -1.074224 -1.074224
179.400000 -1.074224 -1.074224
179.450000 -1.074224 -1.074224
179.500000 -1.074224 -1.074224
179.550000 -1.074224 -1.074224
179.600000 -1.074224 -1.074224
179.650000 -1.074224 -1.074224
179.700000 -1.074224 -1.074224
179.750000 -1.074224 -1.074224
179.800000 -1.074224 -1.074224
179.850000 -1.074223 -1.074224
179.900000 -1.074223 -1.074224
179.950000 -1.074223 -1.074224
180.000000 -1.074223 -1.074224
180.050000 -1.074223 -1.074224
180.100000 -1.074223 -1.074224
180.150000 -1.074223 -1.074224
180.200000 -1.074223 -1.074224
180.250000 -1.074223 -1.074224
180.300000 -1.074223 -1.074224
180.350000 -1.074223 -1.074224
180.400000 -1.074223 -1.074224
180.450000 -1.074223 -1.074224
180.500000 -1.074223 -1.074224
180.550000 -1.074223 -1.074224
180.600000 -1.074223 -1.074224
180.650000 -1.074224 -1.074224
180.700000 -1.074224 -1.074224
180.750000 -1.074224 -1.074224
180.800000 -1.074224 -1.074224
180.850000 -1.074224 -1.074224
180.900000 -1.074224 -1.074224
180.950000 -1.074224 -1.074224
181.000000 -1.074224 -1.074224
181.050000 -1.074224 -1.074224
181.100000 -1.074224 -1.074224
181.150000 -1.074224 -1.074224
181.200000 -1.074224 -1.074224
181.250000 -1.074224 -1.074224
181.300000 -1.074224 -1.074224
181.350000 -1.074224 -1.074224
181.400000 -1.074224 -1.074224
181.450000 -1.074224 -1.074224
181.500000 -1.074224 -1.074224
181.550000 -1.074224 -1.074224
181.600000 -1.074224 -1.074224
181.650000 -1.074224 -1.074224
181.700000 -1.074224 -1.074224
181.750000 -1.074224 -1.074224
181.800000 -1.074224 -1.074224
181.850000 -1.074223 -1.074224
181.900000 -1.074223 -1.074224
181.950000 -1.074223 -1.074224
182.000000 -1.074223 -1.074224
182.050000 -1.074223 -1.074224
182.100000 -1.074223 -1.074224
182.150000 -1.074223 -1.074224
182.200000 -1.074223 -1.074224
182.250000 -1.074223 -1.074224
182.300000 -1.074223 -1.074224
182.350000 -1.074223 -1.074224
182.400000 -1.074223 -1.074224
182.450000 -1.074223 -1.074224
182.500000 -1.074223 -1.074224
182.550000 -1.074223 -1.074224
182.600000 -1.074223 -1.074224
182.650000 -1.074224 -1.074224
182.700000 -1.074224 -1.074224
182.750000 -1.074224 -1.074224
182.800000 -1.074224 -1.074224
182.850000 -1.074224 -1.074224
182.900000 -1.074224 -1.074224
182.950000 -1.074224 -1.074224
183.000000 -1.074224 -1.074224
183.050000 -1.074224 -1.074224
183.100000 -1.074224 -1.074224
183.150000 -1.074224 -1.074224
183.200000 -1.074224 -1.074224
183.250000 -1.074224 -1.074224
183.300000 -1.074224 -1.074224
183.350000 -1.074224 -1.074224
183.400000 -1.074224 -1.074224
183.450000 -1.074224 -1.074224
183.500000 -1.074224 -1.074224
183.550000 -1.074224 -1.074224
183.600000 -1.074224 -1.074224
183.650000 -1.074224 -1.074224
183.700000 -1.074224 -1.074224
183.750000 -1.074224 -1.074224
183.800000 -1.074224 -1.074224
183.850000 -1.074224 -1.074224
183.900000 -1.074223 -1.074224
183.950000 -1.074223 -1.074224
184.000000 -1.074223 -1.074224
184.050000 -1.074223 -1.074224
184.100000 -1.074223 -1.074224
184.150000 -1.074223 -1.074224
184.200000 -1.074223 -1.074224
184.250000 -1.074223 -1.074224
184.300000 -1.074223 -1.074224
184.350000 -1.074223 -1.074224
184.400000 -1.074223 -1.074224
184.450000 -1.074223 -1.074224
184.500000 -1.074223 -1.074224
184.550000 -1.074223 -1.074224
184.600000 -1.074224 -1.074224
184.650000 -1.074224 -1.074224
184.700000 -1.074224 -1.074224
184.750000 -1.074224 -1.074224
184.800000 -1.074224 -1.074224
184.850000 -1.074224 -1.074224
184.900000 -1.074224 -1.074224
184.950000 -1.074224 -1.074224
185.000000 -1.074224 -1.074224
185.050000 -1.074224 -1.074224
185.100000 -1.074224 -1.074224
185.150000 -1.074224 -1.074224
185.200000 -1.074224 -1.074224
185.250000 -1.074224 -1.074224
185.300000 -1.074224 -1.074224
185.350000 -1.074224 -1.074224
185.400000 -1.074224 -1.074224
185.450000 -1.074224 -1.074224
185.500000 -1.074224 -1.074224
185.550000 -1.074224 -1.074224
185.600000 -1.074224 -1.074224
185.650000 -1.074224 -1.074224
185.700000 -1.074224 -1.074224
185.750000 -1.074224 -1.074224
185.800000 -1.074224 -1.074224
185.850000 -1.074224 -1.074224
185.900000 -1.074223 -1.074224
185.950000 -1.074223 -1.074224
186.000000 -1.074223 -1.074224
186.050000 -1.074223 -1.074224
186.100000 -1.074223 -1.074224
186.150000 -1.074223 -1.074224
186.200000 -1.074223 -1.074224
186.250000 -1.074223 -1.074224
186.300000 -1.074223 -1.074224
186.350000 -1.074223 -1.074224
186.400000 -1.074223 -1.074224
186.450000 -1.074223 -1.074224
186.500000 -1.074223 -1.074224
186.550000 -1.074224 -1.074224
186.600000 -1.074224 -1.074224
186.650000 -1.074224 -1.074224
186.700000 -1.074224 -1.074224
186.750000 -1.074224 -1.074224
186.800000 -1.074224 -1.074224
186.850000 -1.074224 -1.074224
186.900000 -1.074224 -1.074224
186.950000 -1.074224 -1.074224
