fit_time[ns] Functional_fit[mV] Thermal_fit[mV]
3.550000 18.047063 18.047063
3.600000 17.633906 17.633906
3.650000 17.230111 17.230112
3.700000 16.835458 16.835458
3.750000 16.449729 16.449729
3.800000 16.072714 16.072715
3.850000 15.704208 15.704208
3.900000 15.344010 15.344010
3.950000 14.991925 14.991925
4.000000 14.647763 14.647763
4.050000 14.311337 14.311337
4.100000 13.982467 13.982467
4.150000 13.660976 13.660976
4.200000 13.346692 13.346692
4.250000 13.039447 13.039447
4.300000 12.739077 12.739077
4.350000 12.445422 12.445422
4.400000 12.158326 12.158326
4.450000 11.877638 11.877638
4.500000 11.603208 11.603208
4.550000 11.334893 11.334893
4.600000 11.072550 11.072550
4.650000 10.816042 10.816042
4.700000 10.565235 10.565235
4.750000 10.319997 10.319997
4.800000 10.080200 10.080200
4.850000 9.845720 9.845720
4.900000 9.616433 9.616433
4.950000 9.392223 9.392223
5.000000 9.172971 9.172971
5.050000 8.958565 8.958565
5.100000 8.748894 8.748894
5.150000 8.543851 8.543851
5.200000 8.343329 8.343329
5.250000 8.147225 8.147225
5.300000 7.955440 7.955440
5.350000 7.767876 7.767876
5.400000 7.584435 7.584435
5.450000 7.405025 7.405026
5.500000 7.229555 7.229555
5.550000 7.057936 7.057936
5.600000 6.890080 6.890080
5.650000 6.725902 6.725902
5.700000 6.565319 6.565319
5.750000 6.408251 6.408251
5.800000 6.254618 6.254618
5.850000 6.104343 6.104343
5.900000 5.957351 5.957351
5.950000 5.813567 5.813567
6.000000 5.672920 5.672920
6.050000 5.535339 5.535339
6.100000 5.400757 5.400757
6.150000 5.269104 5.269104
6.200000 5.140317 5.140317
6.250000 5.014331 5.014331
6.300000 4.891083 4.891083
6.350000 4.770513 4.770513
6.400000 4.652560 4.652560
6.450000 4.537167 4.537167
6.500000 4.424277 4.424277
6.550000 4.313833 4.313833
6.600000 4.205782 4.205782
6.650000 4.100070 4.100070
6.700000 3.996646 3.996646
6.750000 3.895459 3.895459
6.800000 3.796458 3.796458
6.850000 3.699597 3.699597
6.900000 3.604827 3.604827
6.950000 3.512102 3.512102
7.000000 3.421378 3.421378
7.050000 3.332609 3.332609
7.100000 3.245753 3.245753
7.150000 3.160768 3.160768
7.200000 3.077612 3.077612
7.250000 2.996246 2.996246
7.300000 2.916629 2.916629
7.350000 2.838724 2.838724
7.400000 2.762492 2.762492
7.450000 2.687898 2.687898
7.500000 2.614905 2.614905
7.550000 2.543477 2.543477
7.600000 2.473582 2.473582
7.650000 2.405184 2.405184
7.700000 2.338252 2.338252
7.750000 2.272754 2.272754
7.800000 2.208657 2.208657
7.850000 2.145932 2.145932
7.900000 2.084548 2.084548
7.950000 2.024477 2.024477
8.000000 1.965689 1.965689
8.050000 1.908156 1.908156
8.100000 1.851852 1.851852
8.150000 1.796750 1.796750
8.200000 1.742823 1.742823
8.250000 1.690045 1.690045
8.300000 1.638393 1.638393
8.350000 1.587841 1.587841
8.400000 1.538366 1.538366
8.450000 1.489944 1.489944
8.500000 1.442552 1.442552
8.550000 1.396168 1.396168
8.600000 1.350771 1.350771
8.650000 1.306338 1.306338
8.700000 1.262850 1.262850
8.750000 1.220285 1.220285
8.800000 1.178623 1.178623
8.850000 1.137846 1.137846
8.900000 1.097934 1.097934
8.950000 1.058868 1.058868
9.000000 1.020630 1.020630
9.050000 0.983203 0.983203
9.100000 0.946568 0.946568
9.150000 0.910709 0.910709
9.200000 0.875609 0.875609
9.250000 0.841252 0.841252
9.300000 0.807621 0.807621
9.350000 0.774701 0.774701
9.400000 0.742478 0.742478
9.450000 0.710935 0.710935
9.500000 0.680058 0.680058
9.550000 0.649834 0.649834
9.600000 0.620247 0.620247
9.650000 0.591285 0.591285
9.700000 0.562933 0.562933
9.750000 0.535180 0.535180
9.800000 0.508011 0.508011
9.850000 0.481415 0.481415
9.900000 0.455380 0.455380
9.950000 0.429892 0.429892
10.000000 0.404941 0.404941
10.050000 0.380515 0.380515
10.100000 0.356604 0.356604
10.150000 0.333195 0.333195
10.200000 0.310278 0.310278
10.250000 0.287843 0.287843
10.300000 0.265879 0.265879
10.350000 0.244377 0.244377
10.400000 0.223327 0.223327
10.450000 0.202718 0.202718
10.500000 0.182542 0.182542
10.550000 0.162789 0.162789
10.600000 0.143450 0.143450
10.650000 0.124517 0.124517
10.700000 0.105981 0.105981
10.750000 0.087833 0.087833
10.800000 0.070066 0.070066
10.850000 0.052671 0.052671
10.900000 0.035640 0.035640
10.950000 0.018965 0.018965
11.000000 0.002639 0.002639
11.050000 -0.013345 -0.013345
11.100000 -0.028994 -0.028994
11.150000 -0.044317 -0.044317
11.200000 -0.059319 -0.059319
11.250000 -0.074008 -0.074008
11.300000 -0.088389 -0.088389
11.350000 -0.102471 -0.102471
11.400000 -0.116258 -0.116258
11.450000 -0.129757 -0.129757
11.500000 -0.142975 -0.142975
11.550000 -0.155917 -0.155917
11.600000 -0.168589 -0.168589
11.650000 -0.180996 -0.180996
11.700000 -0.193145 -0.193145
11.750000 -0.205041 -0.205041
11.800000 -0.216689 -0.216689
11.850000 -0.228094 -0.228094
11.900000 -0.239262 -0.239262
11.950000 -0.250197 -0.250197
12.000000 -0.260904 -0.260904
12.050000 -0.271389 -0.271389
12.100000 -0.281655 -0.281655
12.150000 -0.291708 -0.291708
12.200000 -0.301552 -0.301552
12.250000 -0.311191 -0.311191
12.300000 -0.320629 -0.320629
12.350000 -0.329872 -0.329872
12.400000 -0.338922 -0.338922
12.450000 -0.347784 -0.347784
12.500000 -0.356463 -0.356463
12.550000 -0.364961 -0.364961
12.600000 -0.373283 -0.373283
12.650000 -0.381432 -0.381432
12.700000 -0.389412 -0.389412
12.750000 -0.397226 -0.397226
12.800000 -0.404878 -0.404878
12.850000 -0.412372 -0.412372
12.900000 -0.419710 -0.419710
12.950000 -0.426896 -0.426896
13.000000 -0.433933 -0.433933
13.050000 -0.440825 -0.440825
13.100000 -0.447574 -0.447574
13.150000 -0.454182 -0.454182
13.200000 -0.460654 -0.460654
13.250000 -0.466993 -0.466993
13.300000 -0.473200 -0.473200
13.350000 -0.479278 -0.479278
13.400000 -0.485231 -0.485231
13.450000 -0.491060 -0.491060
13.500000 -0.496769 -0.496769
13.550000 -0.502360 -0.502360
13.600000 -0.507836 -0.507836
13.650000 -0.513198 -0.513198
13.700000 -0.518450 -0.518450
13.750000 -0.523593 -0.523593
13.800000 -0.528629 -0.528629
13.850000 -0.533562 -0.533562
13.900000 -0.538393 -0.538393
13.950000 -0.543124 -0.543124
14.000000 -0.547758 -0.547758
14.050000 -0.552296 -0.552296
14.100000 -0.556740 -0.556740
14.150000 -0.561093 -0.561093
14.200000 -0.565356 -0.565356
14.250000 -0.569531 -0.569531
14.300000 -0.573620 -0.573620
14.350000 -0.577624 -0.577624
14.400000 -0.581547 -0.581547
14.450000 -0.585388 -0.585388
14.500000 -0.589150 -0.589150
14.550000 -0.592835 -0.592835
14.600000 -0.596444 -0.596444
14.650000 -0.599978 -0.599978
14.700000 -0.603440 -0.603440
14.750000 -0.606831 -0.606831
14.800000 -0.610151 -0.610151
14.850000 -0.613404 -0.613404
14.900000 -0.616589 -0.616589
14.950000 -0.619709 -0.619709
15.000000 -0.622765 -0.622765
15.050000 -0.625758 -0.625758
15.100000 -0.628690 -0.628690
15.150000 -0.631561 -0.631561
15.200000 -0.634374 -0.634374
15.250000 -0.637128 -0.637128
15.300000 -0.639826 -0.639826
15.350000 -0.642469 -0.642469
15.400000 -0.645057 -0.645057
15.450000 -0.647592 -0.647592
15.500000 -0.650075 -0.650075
15.550000 -0.652507 -0.652507
15.600000 -0.654889 -0.654889
15.650000 -0.657223 -0.657223
15.700000 -0.659508 -0.659508
15.750000 -0.661747 -0.661747
15.800000 -0.663939 -0.663939
15.850000 -0.666087 -0.666087
15.900000 -0.668191 -0.668191
15.950000 -0.670251 -0.670251
16.000000 -0.672270 -0.672270
16.050000 -0.674247 -0.674247
16.100000 -0.676183 -0.676183
16.150000 -0.678080 -0.678080
16.200000 -0.679938 -0.679938
16.250000 -0.681758 -0.681758
16.300000 -0.683540 -0.683540
16.350000 -0.685287 -0.685287
16.400000 -0.686997 -0.686997
16.450000 -0.688672 -0.688672
16.500000 -0.690314 -0.690314
16.550000 -0.691921 -0.691921
16.600000 -0.693496 -0.693496
16.650000 -0.695038 -0.695038
16.700000 -0.696549 -0.696549
16.750000 -0.698029 -0.698029
16.800000 -0.699479 -0.699479
16.850000 -0.700899 -0.700899
16.900000 -0.702290 -0.702290
16.950000 -0.703653 -0.703653
17.000000 -0.704987 -0.704987
17.050000 -0.706295 -0.706295
17.100000 -0.707576 -0.707576
17.150000 -0.708831 -0.708831
17.200000 -0.710060 -0.710060
17.250000 -0.711264 -0.711264
17.300000 -0.712443 -0.712443
17.350000 -0.713598 -0.713598
17.400000 -0.714730 -0.714730
17.450000 -0.715839 -0.715839
17.500000 -0.716925 -0.716925
17.550000 -0.717988 -0.717988
17.600000 -0.719031 -0.719031
17.650000 -0.720051 -0.720051
17.700000 -0.721051 -0.721051
17.750000 -0.722031 -0.722031
17.800000 -0.722991 -0.722991
17.850000 -0.723931 -0.723931
17.900000 -0.724852 -0.724852
17.950000 -0.725754 -0.725754
18.000000 -0.726638 -0.726638
18.050000 -0.727504 -0.727504
18.100000 -0.728352 -0.728352
18.150000 -0.729183 -0.729183
18.200000 -0.729997 -0.729997
18.250000 -0.730794 -0.730794
18.300000 -0.731575 -0.731575
18.350000 -0.732341 -0.732341
18.400000 -0.733090 -0.733090
18.450000 -0.733825 -0.733825
18.500000 -0.734544 -0.734544
18.550000 -0.735249 -0.735249
18.600000 -0.735939 -0.735940
18.650000 -0.736616 -0.736616
18.700000 -0.737279 -0.737279
18.750000 -0.737928 -0.737928
18.800000 -0.738564 -0.738564
18.850000 -0.739187 -0.739187
18.900000 -0.739797 -0.739797
18.950000 -0.740395 -0.740395
19.000000 -0.740981 -0.740981
19.050000 -0.741555 -0.741555
19.100000 -0.742117 -0.742117
19.150000 -0.742668 -0.742668
19.200000 -0.743208 -0.743208
19.250000 -0.743736 -0.743736
19.300000 -0.744254 -0.744254
19.350000 -0.744762 -0.744762
19.400000 -0.745259 -0.745259
19.450000 -0.745746 -0.745746
19.500000 -0.746223 -0.746223
19.550000 -0.746691 -0.746691
19.600000 -0.747149 -0.747149
19.650000 -0.747597 -0.747597
19.700000 -0.748037 -0.748037
19.750000 -0.748467 -0.748467
19.800000 -0.748889 -0.748889
19.850000 -0.749303 -0.749303
19.900000 -0.749708 -0.749708
19.950000 -0.750104 -0.750104
20.000000 -0.750493 -0.750493
20.050000 -0.750874 -0.750874
20.100000 -0.751247 -0.751247
20.150000 -0.751612 -0.751613
20.200000 -0.751971 -0.751971
20.250000 -0.752321 -0.752321
20.300000 -0.752665 -0.752665
20.350000 -0.753002 -0.753002
20.400000 -0.753332 -0.753332
20.450000 -0.753655 -0.753655
20.500000 -0.753972 -0.753972
20.550000 -0.754282 -0.754282
20.600000 -0.754586 -0.754586
20.650000 -0.754884 -0.754884
20.700000 -0.755176 -0.755176
20.750000 -0.755462 -0.755462
20.800000 -0.755742 -0.755742
20.850000 -0.756017 -0.756017
20.900000 -0.756285 -0.756285
20.950000 -0.756549 -0.756549
21.000000 -0.756807 -0.756807
21.050000 -0.757060 -0.757060
21.100000 -0.757308 -0.757308
21.150000 -0.757551 -0.757551
21.200000 -0.757788 -0.757788
21.250000 -0.758021 -0.758021
21.300000 -0.758250 -0.758250
21.350000 -0.758474 -0.758474
21.400000 -0.758693 -0.758693
21.450000 -0.758908 -0.758908
21.500000 -0.759118 -0.759118
21.550000 -0.759324 -0.759324
21.600000 -0.759526 -0.759526
21.650000 -0.759724 -0.759724
21.700000 -0.759918 -0.759918
21.750000 -0.760108 -0.760108
21.800000 -0.760294 -0.760294
21.850000 -0.760477 -0.760477
21.900000 -0.760655 -0.760655
21.950000 -0.760830 -0.760830
22.000000 -0.761002 -0.761002
22.050000 -0.761170 -0.761170
22.100000 -0.761335 -0.761335
22.150000 -0.761496 -0.761496
22.200000 -0.761654 -0.761654
22.250000 -0.761809 -0.761809
22.300000 -0.761961 -0.761961
22.350000 -0.762110 -0.762110
22.400000 -0.762255 -0.762255
22.450000 -0.762398 -0.762398
22.500000 -0.762538 -0.762538
22.550000 -0.762675 -0.762675
22.600000 -0.762810 -0.762810
22.650000 -0.762941 -0.762941
22.700000 -0.763070 -0.763070
22.750000 -0.763197 -0.763197
22.800000 -0.763320 -0.763320
22.850000 -0.763442 -0.763442
22.900000 -0.763561 -0.763561
22.950000 -0.763677 -0.763677
23.000000 -0.763791 -0.763791
23.050000 -0.763903 -0.763903
23.100000 -0.764012 -0.764012
23.150000 -0.764120 -0.764120
23.200000 -0.764225 -0.764225
23.250000 -0.764328 -0.764328
23.300000 -0.764429 -0.764429
23.350000 -0.764528 -0.764528
23.400000 -0.764625 -0.764625
23.450000 -0.764720 -0.764720
23.500000 -0.764813 -0.764813
23.550000 -0.764904 -0.764904
23.600000 -0.764994 -0.764994
23.650000 -0.765081 -0.765081
23.700000 -0.765167 -0.765167
23.750000 -0.765251 -0.765251
23.800000 -0.765334 -0.765334
23.850000 -0.765414 -0.765414
23.900000 -0.765494 -0.765494
23.950000 -0.765571 -0.765571
24.000000 -0.765647 -0.765647
24.050000 -0.765721 -0.765721
24.100000 -0.765794 -0.765794
24.150000 -0.765866 -0.765866
24.200000 -0.765936 -0.765936
24.250000 -0.766005 -0.766005
24.300000 -0.766072 -0.766072
24.350000 -0.766138 -0.766138
24.400000 -0.766202 -0.766202
24.450000 -0.766265 -0.766265
24.500000 -0.766327 -0.766327
24.550000 -0.766388 -0.766388
24.600000 -0.766448 -0.766448
24.650000 -0.766506 -0.766506
24.700000 -0.766563 -0.766563
24.750000 -0.766619 -0.766619
24.800000 -0.766674 -0.766674
24.850000 -0.766728 -0.766728
24.900000 -0.766781 -0.766781
24.950000 -0.766832 -0.766832
25.000000 -0.766883 -0.766883
25.050000 -0.766932 -0.766932
25.100000 -0.766981 -0.766981
25.150000 -0.767029 -0.767029
25.200000 -0.767075 -0.767075
25.250000 -0.767121 -0.767121
25.300000 -0.767166 -0.767166
25.350000 -0.767210 -0.767210
25.400000 -0.767253 -0.767253
25.450000 -0.767295 -0.767295
25.500000 -0.767336 -0.767336
25.550000 -0.767377 -0.767377
25.600000 -0.767416 -0.767416
25.650000 -0.767455 -0.767455
25.700000 -0.767493 -0.767493
25.750000 -0.767531 -0.767531
25.800000 -0.767567 -0.767567
25.850000 -0.767603 -0.767603
25.900000 -0.767638 -0.767638
25.950000 -0.767672 -0.767672
26.000000 -0.767706 -0.767706
26.050000 -0.767739 -0.767739
26.100000 -0.767772 -0.767772
26.150000 -0.767803 -0.767803
26.200000 -0.767834 -0.767834
26.250000 -0.767865 -0.767865
26.300000 -0.767895 -0.767895
26.350000 -0.767924 -0.767924
26.400000 -0.767953 -0.767953
26.450000 -0.767981 -0.767981
26.500000 -0.768008 -0.768008
26.550000 -0.768035 -0.768035
26.600000 -0.768062 -0.768062
26.650000 -0.768088 -0.768088
26.700000 -0.768113 -0.768113
26.750000 -0.768138 -0.768138
26.800000 -0.768162 -0.768162
26.850000 -0.768186 -0.768186
26.900000 -0.768210 -0.768210
26.950000 -0.768233 -0.768233
27.000000 -0.768255 -0.768255
27.050000 -0.768277 -0.768277
27.100000 -0.768299 -0.768299
27.150000 -0.768320 -0.768320
27.200000 -0.768341 -0.768341
27.250000 -0.768361 -0.768361
27.300000 -0.768381 -0.768381
27.350000 -0.768400 -0.768400
27.400000 -0.768420 -0.768420
27.450000 -0.768438 -0.768438
27.500000 -0.768457 -0.768457
27.550000 -0.768475 -0.768475
27.600000 -0.768492 -0.768492
27.650000 -0.768510 -0.768510
27.700000 -0.768526 -0.768526
27.750000 -0.768543 -0.768543
27.800000 -0.768559 -0.768559
27.850000 -0.768575 -0.768575
27.900000 -0.768591 -0.768591
27.950000 -0.768606 -0.768606
28.000000 -0.768621 -0.768621
28.050000 -0.768636 -0.768636
28.100000 -0.768650 -0.768650
28.150000 -0.768664 -0.768664
28.200000 -0.768678 -0.768678
28.250000 -0.768692 -0.768692
28.300000 -0.768705 -0.768705
28.350000 -0.768718 -0.768718
28.400000 -0.768731 -0.768731
28.450000 -0.768743 -0.768743
28.500000 -0.768756 -0.768756
28.550000 -0.768768 -0.768768
28.600000 -0.768780 -0.768780
28.650000 -0.768791 -0.768791
28.700000 -0.768802 -0.768802
28.750000 -0.768813 -0.768813
28.800000 -0.768824 -0.768824
28.850000 -0.768835 -0.768835
28.900000 -0.768845 -0.768845
28.950000 -0.768856 -0.768856
29.000000 -0.768866 -0.768866
29.050000 -0.768875 -0.768875
29.100000 -0.768885 -0.768885
29.150000 -0.768894 -0.768894
29.200000 -0.768904 -0.768904
29.250000 -0.768913 -0.768913
29.300000 -0.768922 -0.768922
29.350000 -0.768930 -0.768930
29.400000 -0.768939 -0.768939
29.450000 -0.768947 -0.768947
29.500000 -0.768955 -0.768955
29.550000 -0.768963 -0.768963
29.600000 -0.768971 -0.768971
29.650000 -0.768979 -0.768979
29.700000 -0.768987 -0.768987
29.750000 -0.768994 -0.768994
29.800000 -0.769001 -0.769001
29.850000 -0.769008 -0.769008
29.900000 -0.769015 -0.769015
29.950000 -0.769022 -0.769022
30.000000 -0.769029 -0.769029
30.050000 -0.769035 -0.769035
30.100000 -0.769042 -0.769042
30.150000 -0.769048 -0.769048
30.200000 -0.769054 -0.769054
30.250000 -0.769060 -0.769060
30.300000 -0.769066 -0.769066
30.350000 -0.769072 -0.769072
30.400000 -0.769078 -0.769078
30.450000 -0.769083 -0.769083
30.500000 -0.769089 -0.769089
30.550000 -0.769094 -0.769094
30.600000 -0.769099 -0.769099
30.650000 -0.769105 -0.769105
30.700000 -0.769110 -0.769110
30.750000 -0.769114 -0.769114
30.800000 -0.769119 -0.769119
30.850000 -0.769124 -0.769124
30.900000 -0.769129 -0.769129
30.950000 -0.769133 -0.769133
31.000000 -0.769138 -0.769138
31.050000 -0.769142 -0.769142
31.100000 -0.769146 -0.769146
31.150000 -0.769151 -0.769151
31.200000 -0.769155 -0.769155
31.250000 -0.769159 -0.769159
31.300000 -0.769163 -0.769163
31.350000 -0.769167 -0.769167
31.400000 -0.769170 -0.769170
31.450000 -0.769174 -0.769174
31.500000 -0.769178 -0.769178
31.550000 -0.769181 -0.769181
31.600000 -0.769185 -0.769185
31.650000 -0.769188 -0.769188
31.700000 -0.769192 -0.769192
31.750000 -0.769195 -0.769195
31.800000 -0.769198 -0.769198
31.850000 -0.769201 -0.769201
31.900000 -0.769205 -0.769205
31.950000 -0.769208 -0.769208
32.000000 -0.769211 -0.769211
32.050000 -0.769214 -0.769214
32.100000 -0.769216 -0.769216
32.150000 -0.769219 -0.769219
32.200000 -0.769222 -0.769222
32.250000 -0.769225 -0.769225
32.300000 -0.769227 -0.769227
32.350000 -0.769230 -0.769230
32.400000 -0.769232 -0.769232
32.450000 -0.769235 -0.769235
32.500000 -0.769237 -0.769237
32.550000 -0.769240 -0.769240
32.600000 -0.769242 -0.769242
32.650000 -0.769244 -0.769244
32.700000 -0.769247 -0.769247
32.750000 -0.769249 -0.769249
32.800000 -0.769251 -0.769251
32.850000 -0.769253 -0.769253
32.900000 -0.769255 -0.769255
32.950000 -0.769257 -0.769257
33.000000 -0.769259 -0.769259
33.050000 -0.769261 -0.769261
33.100000 -0.769263 -0.769263
33.150000 -0.769265 -0.769265
33.200000 -0.769267 -0.769267
33.250000 -0.769269 -0.769269
33.300000 -0.769271 -0.769271
33.350000 -0.769272 -0.769272
33.400000 -0.769274 -0.769274
33.450000 -0.769276 -0.769276
33.500000 -0.769277 -0.769277
33.550000 -0.769279 -0.769279
33.600000 -0.769280 -0.769280
33.650000 -0.769282 -0.769282
33.700000 -0.769283 -0.769283
33.750000 -0.769285 -0.769285
33.800000 -0.769286 -0.769286
33.850000 -0.769288 -0.769288
33.900000 -0.769289 -0.769289
33.950000 -0.769291 -0.769291
34.000000 -0.769292 -0.769292
34.050000 -0.769293 -0.769293
34.100000 -0.769294 -0.769294
34.150000 -0.769296 -0.769296
34.200000 -0.769297 -0.769297
34.250000 -0.769298 -0.769298
34.300000 -0.769299 -0.769299
34.350000 -0.769301 -0.769301
34.400000 -0.769302 -0.769302
34.450000 -0.769303 -0.769303
34.500000 -0.769304 -0.769304
34.550000 -0.769305 -0.769305
34.600000 -0.769306 -0.769306
34.650000 -0.769307 -0.769307
34.700000 -0.769308 -0.769308
34.750000 -0.769309 -0.769309
34.800000 -0.769310 -0.769310
34.850000 -0.769311 -0.769311
34.900000 -0.769312 -0.769312
34.950000 -0.769313 -0.769313
35.000000 -0.769314 -0.769314
35.050000 -0.769315 -0.769315
35.100000 -0.769315 -0.769315
35.150000 -0.769316 -0.769316
35.200000 -0.769317 -0.769317
35.250000 -0.769318 -0.769318
35.300000 -0.769319 -0.769319
35.350000 -0.769319 -0.769319
35.400000 -0.769320 -0.769320
35.450000 -0.769321 -0.769321
35.500000 -0.769322 -0.769322
35.550000 -0.769322 -0.769322
35.600000 -0.769323 -0.769323
35.650000 -0.769324 -0.769324
35.700000 -0.769325 -0.769325
35.750000 -0.769325 -0.769325
35.800000 -0.769326 -0.769326
35.850000 -0.769326 -0.769326
35.900000 -0.769327 -0.769327
35.950000 -0.769328 -0.769328
36.000000 -0.769328 -0.769328
36.050000 -0.769329 -0.769329
36.100000 -0.769329 -0.769329
36.150000 -0.769330 -0.769330
36.200000 -0.769331 -0.769331
36.250000 -0.769331 -0.769331
36.300000 -0.769332 -0.769332
36.350000 -0.769332 -0.769332
36.400000 -0.769333 -0.769333
36.450000 -0.769333 -0.769333
36.500000 -0.769334 -0.769334
36.550000 -0.769334 -0.769334
36.600000 -0.769335 -0.769335
36.650000 -0.769335 -0.769335
36.700000 -0.769336 -0.769336
36.750000 -0.769336 -0.769336
36.800000 -0.769336 -0.769336
36.850000 -0.769337 -0.769337
36.900000 -0.769337 -0.769337
36.950000 -0.769338 -0.769338
37.000000 -0.769338 -0.769338
37.050000 -0.769338 -0.769338
37.100000 -0.769339 -0.769339
37.150000 -0.769339 -0.769339
37.200000 -0.769340 -0.769340
37.250000 -0.769340 -0.769340
37.300000 -0.769340 -0.769340
37.350000 -0.769341 -0.769341
37.400000 -0.769341 -0.769341
37.450000 -0.769341 -0.769341
37.500000 -0.769342 -0.769342
37.550000 -0.769342 -0.769342
37.600000 -0.769342 -0.769342
37.650000 -0.769343 -0.769343
37.700000 -0.769343 -0.769343
37.750000 -0.769343 -0.769343
37.800000 -0.769343 -0.769343
37.850000 -0.769344 -0.769344
37.900000 -0.769344 -0.769344
37.950000 -0.769344 -0.769344
38.000000 -0.769345 -0.769345
38.050000 -0.769345 -0.769345
38.100000 -0.769345 -0.769345
38.150000 -0.769345 -0.769345
38.200000 -0.769346 -0.769346
38.250000 -0.769346 -0.769346
38.300000 -0.769346 -0.769346
38.350000 -0.769346 -0.769346
38.400000 -0.769347 -0.769347
38.450000 -0.769347 -0.769347
38.500000 -0.769347 -0.769347
38.550000 -0.769347 -0.769347
38.600000 -0.769347 -0.769347
38.650000 -0.769348 -0.769348
38.700000 -0.769348 -0.769348
38.750000 -0.769348 -0.769348
38.800000 -0.769348 -0.769348
38.850000 -0.769348 -0.769348
38.900000 -0.769349 -0.769349
38.950000 -0.769349 -0.769349
39.000000 -0.769349 -0.769349
39.050000 -0.769349 -0.769349
39.100000 -0.769349 -0.769349
39.150000 -0.769349 -0.769349
39.200000 -0.769350 -0.769350
39.250000 -0.769350 -0.769350
39.300000 -0.769350 -0.769350
39.350000 -0.769350 -0.769350
39.400000 -0.769350 -0.769350
39.450000 -0.769350 -0.769350
39.500000 -0.769351 -0.769351
39.550000 -0.769351 -0.769351
39.600000 -0.769351 -0.769351
39.650000 -0.769351 -0.769351
39.700000 -0.769351 -0.769351
39.750000 -0.769351 -0.769351
39.800000 -0.769351 -0.769351
39.850000 -0.769352 -0.769352
39.900000 -0.769352 -0.769352
39.950000 -0.769352 -0.769352
40.000000 -0.769352 -0.769352
40.050000 -0.769352 -0.769352
40.100000 -0.769352 -0.769352
40.150000 -0.769352 -0.769352
40.200000 -0.769352 -0.769352
40.250000 -0.769352 -0.769352
40.300000 -0.769353 -0.769353
40.350000 -0.769353 -0.769353
40.400000 -0.769353 -0.769353
40.450000 -0.769353 -0.769353
40.500000 -0.769353 -0.769353
40.550000 -0.769353 -0.769353
40.600000 -0.769353 -0.769353
40.650000 -0.769353 -0.769353
40.700000 -0.769353 -0.769353
40.750000 -0.769353 -0.769353
40.800000 -0.769354 -0.769354
40.850000 -0.769354 -0.769354
40.900000 -0.769354 -0.769354
40.950000 -0.769354 -0.769354
41.000000 -0.769354 -0.769354
41.050000 -0.769354 -0.769354
41.100000 -0.769354 -0.769354
41.150000 -0.769354 -0.769354
41.200000 -0.769354 -0.769354
41.250000 -0.769354 -0.769354
41.300000 -0.769354 -0.769354
41.350000 -0.769354 -0.769354
41.400000 -0.769354 -0.769354
41.450000 -0.769355 -0.769355
41.500000 -0.769355 -0.769355
41.550000 -0.769355 -0.769355
41.600000 -0.769355 -0.769355
41.650000 -0.769355 -0.769355
41.700000 -0.769355 -0.769355
41.750000 -0.769355 -0.769355
41.800000 -0.769355 -0.769355
41.850000 -0.769355 -0.769355
41.900000 -0.769355 -0.769355
41.950000 -0.769355 -0.769355
42.000000 -0.769355 -0.769355
42.050000 -0.769355 -0.769355
42.100000 -0.769355 -0.769355
42.150000 -0.769355 -0.769355
42.200000 -0.769355 -0.769355
42.250000 -0.769355 -0.769355
42.300000 -0.769356 -0.769356
42.350000 -0.769356 -0.769356
42.400000 -0.769356 -0.769356
42.450000 -0.769356 -0.769356
42.500000 -0.769356 -0.769356
42.550000 -0.769356 -0.769356
42.600000 -0.769356 -0.769356
42.650000 -0.769356 -0.769356
42.700000 -0.769356 -0.769356
42.750000 -0.769356 -0.769356
42.800000 -0.769356 -0.769356
42.850000 -0.769356 -0.769356
42.900000 -0.769356 -0.769356
42.950000 -0.769356 -0.769356
43.000000 -0.769356 -0.769356
43.050000 -0.769356 -0.769356
43.100000 -0.769356 -0.769356
43.150000 -0.769356 -0.769356
43.200000 -0.769356 -0.769356
43.250000 -0.769356 -0.769356
43.300000 -0.769356 -0.769356
43.350000 -0.769356 -0.769356
43.400000 -0.769356 -0.769356
43.450000 -0.769356 -0.769356
43.500000 -0.769356 -0.769356
43.550000 -0.769356 -0.769356
43.600000 -0.769356 -0.769356
43.650000 -0.769357 -0.769357
43.700000 -0.769357 -0.769357
43.750000 -0.769357 -0.769357
43.800000 -0.769357 -0.769357
43.850000 -0.769357 -0.769357
43.900000 -0.769357 -0.769357
43.950000 -0.769357 -0.769357
44.000000 -0.769357 -0.769357
44.050000 -0.769357 -0.769357
44.100000 -0.769357 -0.769357
44.150000 -0.769357 -0.769357
44.200000 -0.769357 -0.769357
44.250000 -0.769357 -0.769357
44.300000 -0.769357 -0.769357
44.350000 -0.769357 -0.769357
44.400000 -0.769357 -0.769357
44.450000 -0.769357 -0.769357
44.500000 -0.769357 -0.769357
44.550000 -0.769357 -0.769357
44.600000 -0.769357 -0.769357
44.650000 -0.769357 -0.769357
44.700000 -0.769357 -0.769357
44.750000 -0.769357 -0.769357
44.800000 -0.769357 -0.769357
44.850000 -0.769357 -0.769357
44.900000 -0.769357 -0.769357
44.950000 -0.769357 -0.769357
45.000000 -0.769357 -0.769357
45.050000 -0.769357 -0.769357
45.100000 -0.769357 -0.769357
45.150000 -0.769357 -0.769357
45.200000 -0.769357 -0.769357
45.250000 -0.769357 -0.769357
45.300000 -0.769357 -0.769357
45.350000 -0.769357 -0.769357
45.400000 -0.769357 -0.769357
45.450000 -0.769357 -0.769357
45.500000 -0.769357 -0.769357
45.550000 -0.769357 -0.769357
45.600000 -0.769357 -0.769357
45.650000 -0.769357 -0.769357
45.700000 -0.769357 -0.769357
45.750000 -0.769357 -0.769357
45.800000 -0.769357 -0.769357
45.850000 -0.769357 -0.769357
45.900000 -0.769357 -0.769357
45.950000 -0.769357 -0.769357
46.000000 -0.769357 -0.769357
46.050000 -0.769357 -0.769357
46.100000 -0.769357 -0.769357
46.150000 -0.769357 -0.769357
46.200000 -0.769357 -0.769357
46.250000 -0.769357 -0.769357
46.300000 -0.769357 -0.769357
46.350000 -0.769357 -0.769357
46.400000 -0.769357 -0.769357
46.450000 -0.769357 -0.769357
46.500000 -0.769357 -0.769357
46.550000 -0.769357 -0.769357
46.600000 -0.769357 -0.769357
46.650000 -0.769357 -0.769357
46.700000 -0.769357 -0.769357
46.750000 -0.769357 -0.769357
46.800000 -0.769358 -0.769358
46.850000 -0.769358 -0.769358
46.900000 -0.769358 -0.769358
46.950000 -0.769358 -0.769358
47.000000 -0.769358 -0.769358
47.050000 -0.769358 -0.769358
47.100000 -0.769358 -0.769358
47.150000 -0.769358 -0.769358
47.200000 -0.769358 -0.769358
47.250000 -0.769358 -0.769358
47.300000 -0.769358 -0.769358
47.350000 -0.769358 -0.769358
47.400000 -0.769358 -0.769358
47.450000 -0.769358 -0.769358
47.500000 -0.769358 -0.769358
47.550000 -0.769358 -0.769358
47.600000 -0.769358 -0.769358
47.650000 -0.769358 -0.769358
47.700000 -0.769358 -0.769358
47.750000 -0.769358 -0.769358
47.800000 -0.769358 -0.769358
47.850000 -0.769358 -0.769358
47.900000 -0.769358 -0.769358
47.950000 -0.769358 -0.769358
48.000000 -0.769358 -0.769358
48.050000 -0.769358 -0.769358
48.100000 -0.769358 -0.769358
48.150000 -0.769358 -0.769358
48.200000 -0.769358 -0.769358
48.250000 -0.769358 -0.769358
48.300000 -0.769358 -0.769358
48.350000 -0.769358 -0.769358
48.400000 -0.769358 -0.769358
48.450000 -0.769358 -0.769358
48.500000 -0.769358 -0.769358
48.550000 -0.769358 -0.769358
48.600000 -0.769358 -0.769358
48.650000 -0.769358 -0.769358
48.700000 -0.769358 -0.769358
48.750000 -0.769358 -0.769358
48.800000 -0.769358 -0.769358
48.850000 -0.769358 -0.769358
48.900000 -0.769358 -0.769358
48.950000 -0.769358 -0.769358
49.000000 -0.769358 -0.769358
49.050000 -0.769358 -0.769358
49.100000 -0.769358 -0.769358
49.150000 -0.769358 -0.769358
49.200000 -0.769358 -0.769358
49.250000 -0.769358 -0.769358
49.300000 -0.769358 -0.769358
49.350000 -0.769358 -0.769358
49.400000 -0.769358 -0.769358
49.450000 -0.769358 -0.769358
49.500000 -0.769358 -0.769358
49.550000 -0.769358 -0.769358
49.600000 -0.769358 -0.769358
49.650000 -0.769358 -0.769358
49.700000 -0.769358 -0.769358
49.750000 -0.769358 -0.769358
49.800000 -0.769358 -0.769358
49.850000 -0.769358 -0.769358
49.900000 -0.769358 -0.769358
49.950000 -0.769358 -0.769358
50.000000 -0.769358 -0.769358
50.050000 -0.769358 -0.769358
50.100000 -0.769358 -0.769358
50.150000 -0.769358 -0.769358
50.200000 -0.769358 -0.769358
50.250000 -0.769358 -0.769358
50.300000 -0.769358 -0.769358
50.350000 -0.769358 -0.769358
50.400000 -0.769358 -0.769358
50.450000 -0.769358 -0.769358
50.500000 -0.769358 -0.769358
50.550000 -0.769358 -0.769358
50.600000 -0.769358 -0.769358
50.650000 -0.769358 -0.769358
50.700000 -0.769358 -0.769358
50.750000 -0.769358 -0.769358
50.800000 -0.769358 -0.769358
50.850000 -0.769358 -0.769358
50.900000 -0.769358 -0.769358
50.950000 -0.769358 -0.769358
51.000000 -0.769358 -0.769358
51.050000 -0.769358 -0.769358
51.100000 -0.769358 -0.769358
51.150000 -0.769358 -0.769358
51.200000 -0.769358 -0.769358
51.250000 -0.769358 -0.769358
51.300000 -0.769358 -0.769358
51.350000 -0.769358 -0.769358
51.400000 -0.769358 -0.769358
51.450000 -0.769358 -0.769358
51.500000 -0.769358 -0.769358
51.550000 -0.769358 -0.769358
51.600000 -0.769358 -0.769358
51.650000 -0.769358 -0.769358
51.700000 -0.769358 -0.769358
51.750000 -0.769358 -0.769358
51.800000 -0.769358 -0.769358
51.850000 -0.769358 -0.769358
51.900000 -0.769358 -0.769358
51.950000 -0.769358 -0.769358
52.000000 -0.769358 -0.769358
52.050000 -0.769358 -0.769358
52.100000 -0.769358 -0.769358
52.150000 -0.769358 -0.769358
52.200000 -0.769358 -0.769358
52.250000 -0.769358 -0.769358
52.300000 -0.769358 -0.769358
52.350000 -0.769358 -0.769358
52.400000 -0.769358 -0.769358
52.450000 -0.769358 -0.769358
52.500000 -0.769358 -0.769358
52.550000 -0.769358 -0.769358
52.600000 -0.769358 -0.769358
52.650000 -0.769358 -0.769358
52.700000 -0.769358 -0.769358
52.750000 -0.769358 -0.769358
52.800000 -0.769358 -0.769358
52.850000 -0.769358 -0.769358
52.900000 -0.769358 -0.769358
52.950000 -0.769358 -0.769358
53.000000 -0.769358 -0.769358
53.050000 -0.769358 -0.769358
53.100000 -0.769358 -0.769358
53.150000 -0.769358 -0.769358
53.200000 -0.769358 -0.769358
53.250000 -0.769358 -0.769358
53.300000 -0.769358 -0.769358
53.350000 -0.769358 -0.769358
53.400000 -0.769358 -0.769358
53.450000 -0.769358 -0.769358
53.500000 -0.769358 -0.769358
53.550000 -0.769358 -0.769358
53.600000 -0.769358 -0.769358
53.650000 -0.769358 -0.769358
53.700000 -0.769358 -0.769358
53.750000 -0.769358 -0.769358
53.800000 -0.769358 -0.769358
53.850000 -0.769358 -0.769358
53.900000 -0.769358 -0.769358
53.950000 -0.769358 -0.769358
54.000000 -0.769358 -0.769358
54.050000 -0.769358 -0.769358
54.100000 -0.769358 -0.769358
54.150000 -0.769358 -0.769358
54.200000 -0.769358 -0.769358
54.250000 -0.769358 -0.769358
54.300000 -0.769358 -0.769358
54.350000 -0.769358 -0.769358
54.400000 -0.769358 -0.769358
54.450000 -0.769358 -0.769358
54.500000 -0.769358 -0.769358
54.550000 -0.769358 -0.769358
54.600000 -0.769358 -0.769358
54.650000 -0.769358 -0.769358
54.700000 -0.769358 -0.769358
54.750000 -0.769358 -0.769358
54.800000 -0.769358 -0.769358
54.850000 -0.769358 -0.769358
54.900000 -0.769358 -0.769358
54.950000 -0.769358 -0.769358
55.000000 -0.769358 -0.769358
55.050000 -0.769358 -0.769358
55.100000 -0.769358 -0.769358
55.150000 -0.769358 -0.769358
55.200000 -0.769358 -0.769358
55.250000 -0.769358 -0.769358
55.300000 -0.769358 -0.769358
55.350000 -0.769358 -0.769358
55.400000 -0.769358 -0.769358
55.450000 -0.769358 -0.769358
55.500000 -0.769358 -0.769358
55.550000 -0.769358 -0.769358
55.600000 -0.769358 -0.769358
55.650000 -0.769358 -0.769358
55.700000 -0.769358 -0.769358
55.750000 -0.769358 -0.769358
55.800000 -0.769358 -0.769358
55.850000 -0.769358 -0.769358
55.900000 -0.769358 -0.769358
55.950000 -0.769358 -0.769358
56.000000 -0.769358 -0.769358
56.050000 -0.769358 -0.769358
56.100000 -0.769358 -0.769358
56.150000 -0.769358 -0.769358
56.200000 -0.769358 -0.769358
56.250000 -0.769358 -0.769358
56.300000 -0.769358 -0.769358
56.350000 -0.769358 -0.769358
56.400000 -0.769358 -0.769358
56.450000 -0.769358 -0.769358
56.500000 -0.769358 -0.769358
56.550000 -0.769358 -0.769358
56.600000 -0.769358 -0.769358
56.650000 -0.769358 -0.769358
56.700000 -0.769358 -0.769358
56.750000 -0.769358 -0.769358
56.800000 -0.769358 -0.769358
56.850000 -0.769358 -0.769358
56.900000 -0.769358 -0.769358
56.950000 -0.769358 -0.769358
57.000000 -0.769358 -0.769358
57.050000 -0.769358 -0.769358
57.100000 -0.769358 -0.769358
57.150000 -0.769358 -0.769358
57.200000 -0.769358 -0.769358
57.250000 -0.769358 -0.769358
57.300000 -0.769358 -0.769358
57.350000 -0.769358 -0.769358
57.400000 -0.769358 -0.769358
57.450000 -0.769358 -0.769358
57.500000 -0.769358 -0.769358
57.550000 -0.769358 -0.769358
57.600000 -0.769358 -0.769358
57.650000 -0.769358 -0.769358
57.700000 -0.769358 -0.769358
57.750000 -0.769358 -0.769358
57.800000 -0.769358 -0.769358
57.850000 -0.769358 -0.769358
57.900000 -0.769358 -0.769358
57.950000 -0.769358 -0.769358
58.000000 -0.769358 -0.769358
58.050000 -0.769358 -0.769358
58.100000 -0.769358 -0.769358
58.150000 -0.769358 -0.769358
58.200000 -0.769358 -0.769358
58.250000 -0.769358 -0.769358
58.300000 -0.769358 -0.769358
58.350000 -0.769358 -0.769358
58.400000 -0.769358 -0.769358
58.450000 -0.769358 -0.769358
58.500000 -0.769358 -0.769358
58.550000 -0.769358 -0.769358
58.600000 -0.769358 -0.769358
58.650000 -0.769358 -0.769358
58.700000 -0.769358 -0.769358
58.750000 -0.769358 -0.769358
58.800000 -0.769358 -0.769358
58.850000 -0.769358 -0.769358
58.900000 -0.769358 -0.769358
58.950000 -0.769358 -0.769358
59.000000 -0.769358 -0.769358
59.050000 -0.769358 -0.769358
59.100000 -0.769358 -0.769358
59.150000 -0.769358 -0.769358
59.200000 -0.769358 -0.769358
59.250000 -0.769358 -0.769358
59.300000 -0.769358 -0.769358
59.350000 -0.769358 -0.769358
59.400000 -0.769358 -0.769358
59.450000 -0.769358 -0.769358
59.500000 -0.769358 -0.769358
59.550000 -0.769358 -0.769358
59.600000 -0.769358 -0.769358
59.650000 -0.769358 -0.769358
59.700000 -0.769358 -0.769358
59.750000 -0.769358 -0.769358
59.800000 -0.769358 -0.769358
59.850000 -0.769358 -0.769358
59.900000 -0.769358 -0.769358
59.950000 -0.769358 -0.769358
60.000000 -0.769358 -0.769358
60.050000 -0.769358 -0.769358
60.100000 -0.769358 -0.769358
60.150000 -0.769358 -0.769358
60.200000 -0.769358 -0.769358
60.250000 -0.769358 -0.769358
60.300000 -0.769358 -0.769358
60.350000 -0.769358 -0.769358
60.400000 -0.769358 -0.769358
60.450000 -0.769358 -0.769358
60.500000 -0.769358 -0.769358
60.550000 -0.769358 -0.769358
60.600000 -0.769358 -0.769358
60.650000 -0.769358 -0.769358
60.700000 -0.769358 -0.769358
60.750000 -0.769358 -0.769358
60.800000 -0.769358 -0.769358
60.850000 -0.769358 -0.769358
60.900000 -0.769358 -0.769358
60.950000 -0.769358 -0.769358
61.000000 -0.769358 -0.769358
61.050000 -0.769358 -0.769358
61.100000 -0.769358 -0.769358
61.150000 -0.769358 -0.769358
61.200000 -0.769358 -0.769358
61.250000 -0.769358 -0.769358
61.300000 -0.769358 -0.769358
61.350000 -0.769358 -0.769358
61.400000 -0.769358 -0.769358
61.450000 -0.769358 -0.769358
61.500000 -0.769358 -0.769358
61.550000 -0.769358 -0.769358
61.600000 -0.769358 -0.769358
61.650000 -0.769358 -0.769358
61.700000 -0.769358 -0.769358
61.750000 -0.769358 -0.769358
61.800000 -0.769358 -0.769358
61.850000 -0.769358 -0.769358
61.900000 -0.769358 -0.769358
61.950000 -0.769358 -0.769358
62.000000 -0.769358 -0.769358
62.050000 -0.769358 -0.769358
62.100000 -0.769358 -0.769358
62.150000 -0.769358 -0.769358
62.200000 -0.769358 -0.769358
62.250000 -0.769358 -0.769358
62.300000 -0.769358 -0.769358
62.350000 -0.769358 -0.769358
62.400000 -0.769358 -0.769358
62.450000 -0.769358 -0.769358
62.500000 -0.769358 -0.769358
62.550000 -0.769358 -0.769358
62.600000 -0.769358 -0.769358
62.650000 -0.769358 -0.769358
62.700000 -0.769358 -0.769358
62.750000 -0.769358 -0.769358
62.800000 -0.769358 -0.769358
62.850000 -0.769358 -0.769358
62.900000 -0.769358 -0.769358
62.950000 -0.769358 -0.769358
63.000000 -0.769358 -0.769358
63.050000 -0.769358 -0.769358
63.100000 -0.769358 -0.769358
63.150000 -0.769358 -0.769358
63.200000 -0.769358 -0.769358
63.250000 -0.769358 -0.769358
63.300000 -0.769358 -0.769358
63.350000 -0.769358 -0.769358
63.400000 -0.769358 -0.769358
63.450000 -0.769358 -0.769358
63.500000 -0.769358 -0.769358
63.550000 -0.769358 -0.769358
63.600000 -0.769358 -0.769358
63.650000 -0.769358 -0.769358
63.700000 -0.769358 -0.769358
63.750000 -0.769358 -0.769358
63.800000 -0.769358 -0.769358
63.850000 -0.769358 -0.769358
63.900000 -0.769358 -0.769358
63.950000 -0.769358 -0.769358
64.000000 -0.769358 -0.769358
64.050000 -0.769358 -0.769358
64.100000 -0.769358 -0.769358
64.150000 -0.769358 -0.769358
64.200000 -0.769358 -0.769358
64.250000 -0.769358 -0.769358
64.300000 -0.769358 -0.769358
64.350000 -0.769358 -0.769358
64.400000 -0.769358 -0.769358
64.450000 -0.769358 -0.769358
64.500000 -0.769358 -0.769358
64.550000 -0.769358 -0.769358
64.600000 -0.769358 -0.769358
64.650000 -0.769358 -0.769358
64.700000 -0.769358 -0.769358
64.750000 -0.769358 -0.769358
64.800000 -0.769358 -0.769358
64.850000 -0.769358 -0.769358
64.900000 -0.769358 -0.769358
64.950000 -0.769358 -0.769358
65.000000 -0.769358 -0.769358
65.050000 -0.769358 -0.769358
65.100000 -0.769358 -0.769358
65.150000 -0.769358 -0.769358
65.200000 -0.769358 -0.769358
65.250000 -0.769358 -0.769358
65.300000 -0.769358 -0.769358
65.350000 -0.769358 -0.769358
65.400000 -0.769358 -0.769358
65.450000 -0.769358 -0.769358
65.500000 -0.769358 -0.769358
65.550000 -0.769358 -0.769358
65.600000 -0.769358 -0.769358
65.650000 -0.769358 -0.769358
65.700000 -0.769358 -0.769358
65.750000 -0.769358 -0.769358
65.800000 -0.769358 -0.769358
65.850000 -0.769358 -0.769358
65.900000 -0.769358 -0.769358
65.950000 -0.769358 -0.769358
66.000000 -0.769358 -0.769358
66.050000 -0.769358 -0.769358
66.100000 -0.769358 -0.769358
66.150000 -0.769358 -0.769358
66.200000 -0.769358 -0.769358
66.250000 -0.769358 -0.769358
66.300000 -0.769358 -0.769358
66.350000 -0.769358 -0.769358
66.400000 -0.769358 -0.769358
66.450000 -0.769358 -0.769358
66.500000 -0.769358 -0.769358
66.550000 -0.769358 -0.769358
66.600000 -0.769358 -0.769358
66.650000 -0.769358 -0.769358
66.700000 -0.769358 -0.769358
66.750000 -0.769358 -0.769358
66.800000 -0.769358 -0.769358
66.850000 -0.769358 -0.769358
66.900000 -0.769358 -0.769358
66.950000 -0.769358 -0.769358
67.000000 -0.769358 -0.769358
67.050000 -0.769358 -0.769358
67.100000 -0.769358 -0.769358
67.150000 -0.769358 -0.769358
67.200000 -0.769358 -0.769358
67.250000 -0.769358 -0.769358
67.300000 -0.769358 -0.769358
67.350000 -0.769358 -0.769358
67.400000 -0.769358 -0.769358
67.450000 -0.769358 -0.769358
67.500000 -0.769358 -0.769358
67.550000 -0.769358 -0.769358
67.600000 -0.769358 -0.769358
67.650000 -0.769358 -0.769358
67.700000 -0.769358 -0.769358
67.750000 -0.769358 -0.769358
67.800000 -0.769358 -0.769358
67.850000 -0.769358 -0.769358
67.900000 -0.769358 -0.769358
67.950000 -0.769358 -0.769358
68.000000 -0.769358 -0.769358
68.050000 -0.769358 -0.769358
68.100000 -0.769358 -0.769358
68.150000 -0.769358 -0.769358
68.200000 -0.769358 -0.769358
68.250000 -0.769358 -0.769358
68.300000 -0.769358 -0.769358
68.350000 -0.769358 -0.769358
68.400000 -0.769358 -0.769358
68.450000 -0.769358 -0.769358
68.500000 -0.769358 -0.769358
68.550000 -0.769358 -0.769358
68.600000 -0.769358 -0.769358
68.650000 -0.769358 -0.769358
68.700000 -0.769358 -0.769358
68.750000 -0.769358 -0.769358
68.800000 -0.769358 -0.769358
68.850000 -0.769358 -0.769358
68.900000 -0.769358 -0.769358
68.950000 -0.769358 -0.769358
69.000000 -0.769358 -0.769358
69.050000 -0.769358 -0.769358
69.100000 -0.769358 -0.769358
69.150000 -0.769358 -0.769358
69.200000 -0.769358 -0.769358
69.250000 -0.769358 -0.769358
69.300000 -0.769358 -0.769358
69.350000 -0.769358 -0.769358
69.400000 -0.769358 -0.769358
69.450000 -0.769358 -0.769358
69.500000 -0.769358 -0.769358
69.550000 -0.769358 -0.769358
69.600000 -0.769358 -0.769358
69.650000 -0.769358 -0.769358
69.700000 -0.769358 -0.769358
69.750000 -0.769358 -0.769358
69.800000 -0.769358 -0.769358
69.850000 -0.769358 -0.769358
69.900000 -0.769358 -0.769358
69.950000 -0.769358 -0.769358
70.000000 -0.769358 -0.769358
70.050000 -0.769358 -0.769358
70.100000 -0.769358 -0.769358
70.150000 -0.769358 -0.769358
70.200000 -0.769358 -0.769358
70.250000 -0.769358 -0.769358
70.300000 -0.769358 -0.769358
70.350000 -0.769358 -0.769358
70.400000 -0.769358 -0.769358
70.450000 -0.769358 -0.769358
70.500000 -0.769358 -0.769358
70.550000 -0.769358 -0.769358
70.600000 -0.769358 -0.769358
70.650000 -0.769358 -0.769358
70.700000 -0.769358 -0.769358
70.750000 -0.769358 -0.769358
70.800000 -0.769358 -0.769358
70.850000 -0.769358 -0.769358
70.900000 -0.769358 -0.769358
70.950000 -0.769358 -0.769358
71.000000 -0.769358 -0.769358
71.050000 -0.769358 -0.769358
71.100000 -0.769358 -0.769358
71.150000 -0.769358 -0.769358
71.200000 -0.769358 -0.769358
71.250000 -0.769358 -0.769358
71.300000 -0.769358 -0.769358
71.350000 -0.769358 -0.769358
71.400000 -0.769358 -0.769358
71.450000 -0.769358 -0.769358
71.500000 -0.769358 -0.769358
71.550000 -0.769358 -0.769358
71.600000 -0.769358 -0.769358
71.650000 -0.769358 -0.769358
71.700000 -0.769358 -0.769358
71.750000 -0.769358 -0.769358
71.800000 -0.769358 -0.769358
71.850000 -0.769358 -0.769358
71.900000 -0.769358 -0.769358
71.950000 -0.769358 -0.769358
72.000000 -0.769358 -0.769358
72.050000 -0.769358 -0.769358
72.100000 -0.769358 -0.769358
72.150000 -0.769358 -0.769358
72.200000 -0.769358 -0.769358
72.250000 -0.769358 -0.769358
72.300000 -0.769358 -0.769358
72.350000 -0.769358 -0.769358
72.400000 -0.769358 -0.769358
72.450000 -0.769358 -0.769358
72.500000 -0.769358 -0.769358
72.550000 -0.769358 -0.769358
72.600000 -0.769358 -0.769358
72.650000 -0.769358 -0.769358
72.700000 -0.769358 -0.769358
72.750000 -0.769358 -0.769358
72.800000 -0.769358 -0.769358
72.850000 -0.769358 -0.769358
72.900000 -0.769358 -0.769358
72.950000 -0.769358 -0.769358
73.000000 -0.769358 -0.769358
73.050000 -0.769358 -0.769358
73.100000 -0.769358 -0.769358
73.150000 -0.769358 -0.769358
73.200000 -0.769358 -0.769358
73.250000 -0.769358 -0.769358
73.300000 -0.769358 -0.769358
73.350000 -0.769358 -0.769358
73.400000 -0.769358 -0.769358
73.450000 -0.769358 -0.769358
73.500000 -0.769358 -0.769358
73.550000 -0.769358 -0.769358
73.600000 -0.769358 -0.769358
73.650000 -0.769358 -0.769358
73.700000 -0.769358 -0.769358
73.750000 -0.769358 -0.769358
73.800000 -0.769358 -0.769358
73.850000 -0.769358 -0.769358
73.900000 -0.769358 -0.769358
73.950000 -0.769358 -0.769358
74.000000 -0.769358 -0.769358
74.050000 -0.769358 -0.769358
74.100000 -0.769358 -0.769358
74.150000 -0.769358 -0.769358
74.200000 -0.769358 -0.769358
74.250000 -0.769358 -0.769358
74.300000 -0.769358 -0.769358
74.350000 -0.769358 -0.769358
74.400000 -0.769358 -0.769358
74.450000 -0.769358 -0.769358
74.500000 -0.769358 -0.769358
74.550000 -0.769358 -0.769358
74.600000 -0.769358 -0.769358
74.650000 -0.769358 -0.769358
74.700000 -0.769358 -0.769358
74.750000 -0.769358 -0.769358
74.800000 -0.769358 -0.769358
74.850000 -0.769358 -0.769358
74.900000 -0.769358 -0.769358
74.950000 -0.769358 -0.769358
75.000000 -0.769358 -0.769358
75.050000 -0.769358 -0.769358
75.100000 -0.769358 -0.769358
75.150000 -0.769358 -0.769358
75.200000 -0.769358 -0.769358
75.250000 -0.769358 -0.769358
75.300000 -0.769358 -0.769358
75.350000 -0.769358 -0.769358
75.400000 -0.769358 -0.769358
75.450000 -0.769358 -0.769358
75.500000 -0.769358 -0.769358
75.550000 -0.769358 -0.769358
75.600000 -0.769358 -0.769358
75.650000 -0.769358 -0.769358
75.700000 -0.769358 -0.769358
75.750000 -0.769358 -0.769358
75.800000 -0.769358 -0.769358
75.850000 -0.769358 -0.769358
75.900000 -0.769358 -0.769358
75.950000 -0.769358 -0.769358
76.000000 -0.769358 -0.769358
76.050000 -0.769358 -0.769358
76.100000 -0.769358 -0.769358
76.150000 -0.769358 -0.769358
76.200000 -0.769358 -0.769358
76.250000 -0.769358 -0.769358
76.300000 -0.769358 -0.769358
76.350000 -0.769358 -0.769358
76.400000 -0.769358 -0.769358
76.450000 -0.769358 -0.769358
76.500000 -0.769358 -0.769358
76.550000 -0.769358 -0.769358
76.600000 -0.769358 -0.769358
76.650000 -0.769358 -0.769358
76.700000 -0.769358 -0.769358
76.750000 -0.769358 -0.769358
76.800000 -0.769358 -0.769358
76.850000 -0.769358 -0.769358
76.900000 -0.769358 -0.769358
76.950000 -0.769358 -0.769358
77.000000 -0.769358 -0.769358
77.050000 -0.769358 -0.769358
77.100000 -0.769358 -0.769358
77.150000 -0.769358 -0.769358
77.200000 -0.769358 -0.769358
77.250000 -0.769358 -0.769358
77.300000 -0.769358 -0.769358
77.350000 -0.769358 -0.769358
77.400000 -0.769358 -0.769358
77.450000 -0.769358 -0.769358
77.500000 -0.769358 -0.769358
77.550000 -0.769358 -0.769358
77.600000 -0.769358 -0.769358
77.650000 -0.769358 -0.769358
77.700000 -0.769358 -0.769358
77.750000 -0.769358 -0.769358
77.800000 -0.769358 -0.769358
77.850000 -0.769358 -0.769358
77.900000 -0.769358 -0.769358
77.950000 -0.769358 -0.769358
78.000000 -0.769358 -0.769358
78.050000 -0.769358 -0.769358
78.100000 -0.769358 -0.769358
78.150000 -0.769358 -0.769358
78.200000 -0.769358 -0.769358
78.250000 -0.769358 -0.769358
78.300000 -0.769358 -0.769358
78.350000 -0.769358 -0.769358
78.400000 -0.769358 -0.769358
78.450000 -0.769358 -0.769358
78.500000 -0.769358 -0.769358
78.550000 -0.769358 -0.769358
78.600000 -0.769358 -0.769358
78.650000 -0.769358 -0.769358
78.700000 -0.769358 -0.769358
78.750000 -0.769358 -0.769358
78.800000 -0.769358 -0.769358
78.850000 -0.769358 -0.769358
78.900000 -0.769358 -0.769358
78.950000 -0.769358 -0.769358
79.000000 -0.769358 -0.769358
79.050000 -0.769358 -0.769358
79.100000 -0.769358 -0.769358
79.150000 -0.769358 -0.769358
79.200000 -0.769358 -0.769358
79.250000 -0.769358 -0.769358
79.300000 -0.769358 -0.769358
79.350000 -0.769358 -0.769358
79.400000 -0.769358 -0.769358
79.450000 -0.769358 -0.769358
79.500000 -0.769358 -0.769358
79.550000 -0.769358 -0.769358
79.600000 -0.769358 -0.769358
79.650000 -0.769358 -0.769358
79.700000 -0.769358 -0.769358
79.750000 -0.769358 -0.769358
79.800000 -0.769358 -0.769358
79.850000 -0.769358 -0.769358
79.900000 -0.769358 -0.769358
79.950000 -0.769358 -0.769358
80.000000 -0.769358 -0.769358
80.050000 -0.769358 -0.769358
80.100000 -0.769358 -0.769358
80.150000 -0.769358 -0.769358
80.200000 -0.769358 -0.769358
80.250000 -0.769358 -0.769358
80.300000 -0.769358 -0.769358
80.350000 -0.769358 -0.769358
80.400000 -0.769358 -0.769358
80.450000 -0.769358 -0.769358
80.500000 -0.769358 -0.769358
80.550000 -0.769358 -0.769358
80.600000 -0.769358 -0.769358
80.650000 -0.769358 -0.769358
80.700000 -0.769358 -0.769358
80.750000 -0.769358 -0.769358
80.800000 -0.769358 -0.769358
80.850000 -0.769358 -0.769358
80.900000 -0.769358 -0.769358
80.950000 -0.769358 -0.769358
81.000000 -0.769358 -0.769358
81.050000 -0.769358 -0.769358
81.100000 -0.769358 -0.769358
81.150000 -0.769358 -0.769358
81.200000 -0.769358 -0.769358
81.250000 -0.769358 -0.769358
81.300000 -0.769358 -0.769358
81.350000 -0.769358 -0.769358
81.400000 -0.769358 -0.769358
81.450000 -0.769358 -0.769358
81.500000 -0.769358 -0.769358
81.550000 -0.769358 -0.769358
81.600000 -0.769358 -0.769358
81.650000 -0.769358 -0.769358
81.700000 -0.769358 -0.769358
81.750000 -0.769358 -0.769358
81.800000 -0.769358 -0.769358
81.850000 -0.769358 -0.769358
81.900000 -0.769358 -0.769358
81.950000 -0.769358 -0.769358
82.000000 -0.769358 -0.769358
82.050000 -0.769358 -0.769358
82.100000 -0.769358 -0.769358
82.150000 -0.769358 -0.769358
82.200000 -0.769358 -0.769358
82.250000 -0.769358 -0.769358
82.300000 -0.769358 -0.769358
82.350000 -0.769358 -0.769358
82.400000 -0.769358 -0.769358
82.450000 -0.769358 -0.769358
82.500000 -0.769358 -0.769358
82.550000 -0.769358 -0.769358
82.600000 -0.769358 -0.769358
82.650000 -0.769358 -0.769358
82.700000 -0.769358 -0.769358
82.750000 -0.769358 -0.769358
82.800000 -0.769358 -0.769358
82.850000 -0.769358 -0.769358
82.900000 -0.769358 -0.769358
82.950000 -0.769358 -0.769358
83.000000 -0.769358 -0.769358
83.050000 -0.769358 -0.769358
83.100000 -0.769358 -0.769358
83.150000 -0.769358 -0.769358
83.200000 -0.769358 -0.769358
83.250000 -0.769358 -0.769358
83.300000 -0.769358 -0.769358
83.350000 -0.769358 -0.769358
83.400000 -0.769358 -0.769358
83.450000 -0.769358 -0.769358
83.500000 -0.769358 -0.769358
83.550000 -0.769358 -0.769358
83.600000 -0.769358 -0.769358
83.650000 -0.769358 -0.769358
83.700000 -0.769358 -0.769358
83.750000 -0.769358 -0.769358
83.800000 -0.769358 -0.769358
83.850000 -0.769358 -0.769358
83.900000 -0.769358 -0.769358
83.950000 -0.769358 -0.769358
84.000000 -0.769358 -0.769358
84.050000 -0.769358 -0.769358
84.100000 -0.769358 -0.769358
84.150000 -0.769358 -0.769358
84.200000 -0.769358 -0.769358
84.250000 -0.769358 -0.769358
84.300000 -0.769358 -0.769358
84.350000 -0.769358 -0.769358
84.400000 -0.769358 -0.769358
84.450000 -0.769358 -0.769358
84.500000 -0.769358 -0.769358
84.550000 -0.769358 -0.769358
84.600000 -0.769358 -0.769358
84.650000 -0.769358 -0.769358
84.700000 -0.769358 -0.769358
84.750000 -0.769358 -0.769358
84.800000 -0.769358 -0.769358
84.850000 -0.769358 -0.769358
84.900000 -0.769358 -0.769358
84.950000 -0.769358 -0.769358
85.000000 -0.769358 -0.769358
85.050000 -0.769358 -0.769358
85.100000 -0.769358 -0.769358
85.150000 -0.769358 -0.769358
85.200000 -0.769358 -0.769358
85.250000 -0.769358 -0.769358
85.300000 -0.769358 -0.769358
85.350000 -0.769358 -0.769358
85.400000 -0.769358 -0.769358
85.450000 -0.769358 -0.769358
85.500000 -0.769358 -0.769358
85.550000 -0.769358 -0.769358
85.600000 -0.769358 -0.769358
85.650000 -0.769358 -0.769358
85.700000 -0.769358 -0.769358
85.750000 -0.769358 -0.769358
85.800000 -0.769358 -0.769358
85.850000 -0.769358 -0.769358
85.900000 -0.769358 -0.769358
85.950000 -0.769358 -0.769358
86.000000 -0.769358 -0.769358
86.050000 -0.769358 -0.769358
86.100000 -0.769358 -0.769358
86.150000 -0.769358 -0.769358
86.200000 -0.769358 -0.769358
86.250000 -0.769358 -0.769358
86.300000 -0.769358 -0.769358
86.350000 -0.769358 -0.769358
86.400000 -0.769358 -0.769358
86.450000 -0.769358 -0.769358
86.500000 -0.769358 -0.769358
86.550000 -0.769358 -0.769358
86.600000 -0.769358 -0.769358
86.650000 -0.769358 -0.769358
86.700000 -0.769358 -0.769358
86.750000 -0.769358 -0.769358
86.800000 -0.769358 -0.769358
86.850000 -0.769358 -0.769358
86.900000 -0.769358 -0.769358
86.950000 -0.769358 -0.769358
87.000000 -0.769358 -0.769358
87.050000 -0.769358 -0.769358
87.100000 -0.769358 -0.769358
87.150000 -0.769358 -0.769358
87.200000 -0.769358 -0.769358
87.250000 -0.769358 -0.769358
87.300000 -0.769358 -0.769358
87.350000 -0.769358 -0.769358
87.400000 -0.769358 -0.769358
87.450000 -0.769358 -0.769358
87.500000 -0.769358 -0.769358
87.550000 -0.769358 -0.769358
87.600000 -0.769358 -0.769358
87.650000 -0.769358 -0.769358
87.700000 -0.769358 -0.769358
87.750000 -0.769358 -0.769358
87.800000 -0.769358 -0.769358
87.850000 -0.769358 -0.769358
87.900000 -0.769358 -0.769358
87.950000 -0.769358 -0.769358
88.000000 -0.769358 -0.769358
88.050000 -0.769358 -0.769358
88.100000 -0.769358 -0.769358
88.150000 -0.769358 -0.769358
88.200000 -0.769358 -0.769358
88.250000 -0.769358 -0.769358
88.300000 -0.769358 -0.769358
88.350000 -0.769358 -0.769358
88.400000 -0.769358 -0.769358
88.450000 -0.769358 -0.769358
88.500000 -0.769358 -0.769358
88.550000 -0.769358 -0.769358
88.600000 -0.769358 -0.769358
88.650000 -0.769358 -0.769358
88.700000 -0.769358 -0.769358
88.750000 -0.769358 -0.769358
88.800000 -0.769358 -0.769358
88.850000 -0.769358 -0.769358
88.900000 -0.769358 -0.769358
88.950000 -0.769358 -0.769358
89.000000 -0.769358 -0.769358
89.050000 -0.769358 -0.769358
89.100000 -0.769358 -0.769358
89.150000 -0.769358 -0.769358
89.200000 -0.769358 -0.769358
89.250000 -0.769358 -0.769358
89.300000 -0.769358 -0.769358
89.350000 -0.769358 -0.769358
89.400000 -0.769358 -0.769358
89.450000 -0.769358 -0.769358
89.500000 -0.769358 -0.769358
89.550000 -0.769358 -0.769358
89.600000 -0.769358 -0.769358
89.650000 -0.769358 -0.769358
89.700000 -0.769358 -0.769358
89.750000 -0.769358 -0.769358
89.800000 -0.769358 -0.769358
89.850000 -0.769358 -0.769358
89.900000 -0.769358 -0.769358
89.950000 -0.769358 -0.769358
90.000000 -0.769358 -0.769358
90.050000 -0.769358 -0.769358
90.100000 -0.769358 -0.769358
90.150000 -0.769358 -0.769358
90.200000 -0.769358 -0.769358
90.250000 -0.769358 -0.769358
90.300000 -0.769358 -0.769358
90.350000 -0.769358 -0.769358
90.400000 -0.769358 -0.769358
90.450000 -0.769358 -0.769358
90.500000 -0.769358 -0.769358
90.550000 -0.769358 -0.769358
90.600000 -0.769358 -0.769358
90.650000 -0.769358 -0.769358
90.700000 -0.769358 -0.769358
90.750000 -0.769358 -0.769358
90.800000 -0.769358 -0.769358
90.850000 -0.769358 -0.769358
90.900000 -0.769358 -0.769358
90.950000 -0.769358 -0.769358
91.000000 -0.769358 -0.769358
91.050000 -0.769358 -0.769358
91.100000 -0.769358 -0.769358
91.150000 -0.769358 -0.769358
91.200000 -0.769358 -0.769358
91.250000 -0.769358 -0.769358
91.300000 -0.769358 -0.769358
91.350000 -0.769358 -0.769358
91.400000 -0.769358 -0.769358
91.450000 -0.769358 -0.769358
91.500000 -0.769358 -0.769358
91.550000 -0.769358 -0.769358
91.600000 -0.769358 -0.769358
91.650000 -0.769358 -0.769358
91.700000 -0.769358 -0.769358
91.750000 -0.769358 -0.769358
91.800000 -0.769358 -0.769358
91.850000 -0.769358 -0.769358
91.900000 -0.769358 -0.769358
91.950000 -0.769358 -0.769358
92.000000 -0.769358 -0.769358
92.050000 -0.769358 -0.769358
92.100000 -0.769358 -0.769358
92.150000 -0.769358 -0.769358
92.200000 -0.769358 -0.769358
92.250000 -0.769358 -0.769358
92.300000 -0.769358 -0.769358
92.350000 -0.769358 -0.769358
92.400000 -0.769358 -0.769358
92.450000 -0.769358 -0.769358
92.500000 -0.769358 -0.769358
92.550000 -0.769358 -0.769358
92.600000 -0.769358 -0.769358
92.650000 -0.769358 -0.769358
92.700000 -0.769358 -0.769358
92.750000 -0.769358 -0.769358
92.800000 -0.769358 -0.769358
92.850000 -0.769358 -0.769358
92.900000 -0.769358 -0.769358
92.950000 -0.769358 -0.769358
93.000000 -0.769358 -0.769358
93.050000 -0.769358 -0.769358
93.100000 -0.769358 -0.769358
93.150000 -0.769358 -0.769358
93.200000 -0.769358 -0.769358
93.250000 -0.769358 -0.769358
93.300000 -0.769358 -0.769358
93.350000 -0.769358 -0.769358
93.400000 -0.769358 -0.769358
93.450000 -0.769358 -0.769358
93.500000 -0.769358 -0.769358
93.550000 -0.769358 -0.769358
93.600000 -0.769358 -0.769358
93.650000 -0.769358 -0.769358
93.700000 -0.769358 -0.769358
93.750000 -0.769358 -0.769358
93.800000 -0.769358 -0.769358
93.850000 -0.769358 -0.769358
93.900000 -0.769358 -0.769358
93.950000 -0.769358 -0.769358
94.000000 -0.769358 -0.769358
94.050000 -0.769358 -0.769358
94.100000 -0.769358 -0.769358
94.150000 -0.769358 -0.769358
94.200000 -0.769358 -0.769358
94.250000 -0.769358 -0.769358
94.300000 -0.769358 -0.769358
94.350000 -0.769358 -0.769358
94.400000 -0.769358 -0.769358
94.450000 -0.769358 -0.769358
94.500000 -0.769358 -0.769358
94.550000 -0.769358 -0.769358
94.600000 -0.769358 -0.769358
94.650000 -0.769358 -0.769358
94.700000 -0.769358 -0.769358
94.750000 -0.769358 -0.769358
94.800000 -0.769358 -0.769358
94.850000 -0.769358 -0.769358
94.900000 -0.769358 -0.769358
94.950000 -0.769358 -0.769358
95.000000 -0.769358 -0.769358
95.050000 -0.769358 -0.769358
95.100000 -0.769358 -0.769358
95.150000 -0.769358 -0.769358
95.200000 -0.769358 -0.769358
95.250000 -0.769358 -0.769358
95.300000 -0.769358 -0.769358
95.350000 -0.769358 -0.769358
95.400000 -0.769358 -0.769358
95.450000 -0.769358 -0.769358
95.500000 -0.769358 -0.769358
95.550000 -0.769358 -0.769358
95.600000 -0.769358 -0.769358
95.650000 -0.769358 -0.769358
95.700000 -0.769358 -0.769358
95.750000 -0.769358 -0.769358
95.800000 -0.769358 -0.769358
95.850000 -0.769358 -0.769358
95.900000 -0.769358 -0.769358
95.950000 -0.769358 -0.769358
96.000000 -0.769358 -0.769358
96.050000 -0.769358 -0.769358
96.100000 -0.769358 -0.769358
96.150000 -0.769358 -0.769358
96.200000 -0.769358 -0.769358
96.250000 -0.769358 -0.769358
96.300000 -0.769358 -0.769358
96.350000 -0.769358 -0.769358
96.400000 -0.769358 -0.769358
96.450000 -0.769358 -0.769358
96.500000 -0.769358 -0.769358
96.550000 -0.769358 -0.769358
96.600000 -0.769358 -0.769358
96.650000 -0.769358 -0.769358
96.700000 -0.769358 -0.769358
96.750000 -0.769358 -0.769358
96.800000 -0.769358 -0.769358
96.850000 -0.769358 -0.769358
96.900000 -0.769358 -0.769358
96.950000 -0.769358 -0.769358
97.000000 -0.769358 -0.769358
97.050000 -0.769358 -0.769358
97.100000 -0.769358 -0.769358
97.150000 -0.769358 -0.769358
97.200000 -0.769358 -0.769358
97.250000 -0.769358 -0.769358
97.300000 -0.769358 -0.769358
97.350000 -0.769358 -0.769358
97.400000 -0.769358 -0.769358
97.450000 -0.769358 -0.769358
97.500000 -0.769358 -0.769358
97.550000 -0.769358 -0.769358
97.600000 -0.769358 -0.769358
97.650000 -0.769358 -0.769358
97.700000 -0.769358 -0.769358
97.750000 -0.769358 -0.769358
97.800000 -0.769358 -0.769358
97.850000 -0.769358 -0.769358
97.900000 -0.769358 -0.769358
97.950000 -0.769358 -0.769358
98.000000 -0.769358 -0.769358
98.050000 -0.769358 -0.769358
98.100000 -0.769358 -0.769358
98.150000 -0.769358 -0.769358
98.200000 -0.769358 -0.769358
98.250000 -0.769358 -0.769358
98.300000 -0.769358 -0.769358
98.350000 -0.769358 -0.769358
98.400000 -0.769358 -0.769358
98.450000 -0.769358 -0.769358
98.500000 -0.769358 -0.769358
98.550000 -0.769358 -0.769358
98.600000 -0.769358 -0.769358
98.650000 -0.769358 -0.769358
98.700000 -0.769358 -0.769358
98.750000 -0.769358 -0.769358
98.800000 -0.769358 -0.769358
98.850000 -0.769358 -0.769358
98.900000 -0.769358 -0.769358
98.950000 -0.769358 -0.769358
99.000000 -0.769358 -0.769358
99.050000 -0.769358 -0.769358
99.100000 -0.769358 -0.769358
99.150000 -0.769358 -0.769358
99.200000 -0.769358 -0.769358
99.250000 -0.769358 -0.769358
99.300000 -0.769358 -0.769358
99.350000 -0.769358 -0.769358
99.400000 -0.769358 -0.769358
99.450000 -0.769358 -0.769358
99.500000 -0.769358 -0.769358
99.550000 -0.769358 -0.769358
99.600000 -0.769358 -0.769358
99.650000 -0.769358 -0.769358
99.700000 -0.769358 -0.769358
99.750000 -0.769358 -0.769358
99.800000 -0.769358 -0.769358
99.850000 -0.769358 -0.769358
99.900000 -0.769358 -0.769358
99.950000 -0.769358 -0.769358
100.000000 -0.769358 -0.769358
100.050000 -0.769358 -0.769358
100.100000 -0.769358 -0.769358
100.150000 -0.769358 -0.769358
100.200000 -0.769358 -0.769358
100.250000 -0.769358 -0.769358
100.300000 -0.769358 -0.769358
100.350000 -0.769358 -0.769358
100.400000 -0.769358 -0.769358
100.450000 -0.769358 -0.769358
100.500000 -0.769358 -0.769358
100.550000 -0.769358 -0.769358
100.600000 -0.769358 -0.769358
100.650000 -0.769358 -0.769358
100.700000 -0.769358 -0.769358
100.750000 -0.769358 -0.769358
100.800000 -0.769358 -0.769358
100.850000 -0.769358 -0.769358
100.900000 -0.769358 -0.769358
100.950000 -0.769358 -0.769358
101.000000 -0.769358 -0.769358
101.050000 -0.769358 -0.769358
101.100000 -0.769358 -0.769358
101.150000 -0.769358 -0.769358
101.200000 -0.769358 -0.769358
101.250000 -0.769358 -0.769358
101.300000 -0.769358 -0.769358
101.350000 -0.769358 -0.769358
101.400000 -0.769358 -0.769358
101.450000 -0.769358 -0.769358
101.500000 -0.769358 -0.769358
101.550000 -0.769358 -0.769358
101.600000 -0.769358 -0.769358
101.650000 -0.769358 -0.769358
101.700000 -0.769358 -0.769358
101.750000 -0.769358 -0.769358
101.800000 -0.769358 -0.769358
101.850000 -0.769358 -0.769358
101.900000 -0.769358 -0.769358
101.950000 -0.769358 -0.769358
102.000000 -0.769358 -0.769358
102.050000 -0.769358 -0.769358
102.100000 -0.769358 -0.769358
102.150000 -0.769358 -0.769358
102.200000 -0.769358 -0.769358
102.250000 -0.769358 -0.769358
102.300000 -0.769358 -0.769358
102.350000 -0.769358 -0.769358
102.400000 -0.769358 -0.769358
102.450000 -0.769358 -0.769358
102.500000 -0.769358 -0.769358
102.550000 -0.769358 -0.769358
102.600000 -0.769358 -0.769358
102.650000 -0.769358 -0.769358
102.700000 -0.769358 -0.769358
102.750000 -0.769358 -0.769358
102.800000 -0.769358 -0.769358
102.850000 -0.769358 -0.769358
102.900000 -0.769358 -0.769358
102.950000 -0.769358 -0.769358
103.000000 -0.769358 -0.769358
103.050000 -0.769358 -0.769358
103.100000 -0.769358 -0.769358
103.150000 -0.769358 -0.769358
103.200000 -0.769358 -0.769358
103.250000 -0.769358 -0.769358
103.300000 -0.769358 -0.769358
103.350000 -0.769358 -0.769358
103.400000 -0.769358 -0.769358
103.450000 -0.769358 -0.769358
103.500000 -0.769358 -0.769358
103.550000 -0.769358 -0.769358
103.600000 -0.769358 -0.769358
103.650000 -0.769358 -0.769358
103.700000 -0.769358 -0.769358
103.750000 -0.769358 -0.769358
103.800000 -0.769358 -0.769358
103.850000 -0.769358 -0.769358
103.900000 -0.769358 -0.769358
103.950000 -0.769358 -0.769358
104.000000 -0.769358 -0.769358
104.050000 -0.769358 -0.769358
104.100000 -0.769358 -0.769358
104.150000 -0.769358 -0.769358
104.200000 -0.769358 -0.769358
104.250000 -0.769358 -0.769358
104.300000 -0.769358 -0.769358
104.350000 -0.769358 -0.769358
104.400000 -0.769358 -0.769358
104.450000 -0.769358 -0.769358
104.500000 -0.769358 -0.769358
104.550000 -0.769358 -0.769358
104.600000 -0.769358 -0.769358
104.650000 -0.769358 -0.769358
104.700000 -0.769358 -0.769358
104.750000 -0.769358 -0.769358
104.800000 -0.769358 -0.769358
104.850000 -0.769358 -0.769358
104.900000 -0.769358 -0.769358
104.950000 -0.769358 -0.769358
105.000000 -0.769358 -0.769358
105.050000 -0.769358 -0.769358
105.100000 -0.769358 -0.769358
105.150000 -0.769358 -0.769358
105.200000 -0.769358 -0.769358
105.250000 -0.769358 -0.769358
105.300000 -0.769358 -0.769358
105.350000 -0.769358 -0.769358
105.400000 -0.769358 -0.769358
105.450000 -0.769358 -0.769358
105.500000 -0.769358 -0.769358
105.550000 -0.769358 -0.769358
105.600000 -0.769358 -0.769358
105.650000 -0.769358 -0.769358
105.700000 -0.769358 -0.769358
105.750000 -0.769358 -0.769358
105.800000 -0.769358 -0.769358
105.850000 -0.769358 -0.769358
105.900000 -0.769358 -0.769358
105.950000 -0.769358 -0.769358
106.000000 -0.769358 -0.769358
106.050000 -0.769358 -0.769358
106.100000 -0.769358 -0.769358
106.150000 -0.769358 -0.769358
106.200000 -0.769358 -0.769358
106.250000 -0.769358 -0.769358
106.300000 -0.769358 -0.769358
106.350000 -0.769358 -0.769358
106.400000 -0.769358 -0.769358
106.450000 -0.769358 -0.769358
106.500000 -0.769358 -0.769358
106.550000 -0.769358 -0.769358
106.600000 -0.769358 -0.769358
106.650000 -0.769358 -0.769358
106.700000 -0.769358 -0.769358
106.750000 -0.769358 -0.769358
106.800000 -0.769358 -0.769358
106.850000 -0.769358 -0.769358
106.900000 -0.769358 -0.769358
106.950000 -0.769358 -0.769358
107.000000 -0.769358 -0.769358
107.050000 -0.769358 -0.769358
107.100000 -0.769358 -0.769358
107.150000 -0.769358 -0.769358
107.200000 -0.769358 -0.769358
107.250000 -0.769358 -0.769358
107.300000 -0.769358 -0.769358
107.350000 -0.769358 -0.769358
107.400000 -0.769358 -0.769358
107.450000 -0.769358 -0.769358
107.500000 -0.769358 -0.769358
107.550000 -0.769358 -0.769358
107.600000 -0.769358 -0.769358
107.650000 -0.769358 -0.769358
107.700000 -0.769358 -0.769358
107.750000 -0.769358 -0.769358
107.800000 -0.769358 -0.769358
107.850000 -0.769358 -0.769358
107.900000 -0.769358 -0.769358
107.950000 -0.769358 -0.769358
108.000000 -0.769358 -0.769358
108.050000 -0.769358 -0.769358
108.100000 -0.769358 -0.769358
108.150000 -0.769358 -0.769358
108.200000 -0.769358 -0.769358
108.250000 -0.769358 -0.769358
108.300000 -0.769358 -0.769358
108.350000 -0.769358 -0.769358
108.400000 -0.769358 -0.769358
108.450000 -0.769358 -0.769358
108.500000 -0.769358 -0.769358
108.550000 -0.769358 -0.769358
108.600000 -0.769358 -0.769358
108.650000 -0.769358 -0.769358
108.700000 -0.769358 -0.769358
108.750000 -0.769358 -0.769358
108.800000 -0.769358 -0.769358
108.850000 -0.769358 -0.769358
108.900000 -0.769358 -0.769358
108.950000 -0.769358 -0.769358
109.000000 -0.769358 -0.769358
109.050000 -0.769358 -0.769358
109.100000 -0.769358 -0.769358
109.150000 -0.769358 -0.769358
109.200000 -0.769358 -0.769358
109.250000 -0.769358 -0.769358
109.300000 -0.769358 -0.769358
109.350000 -0.769358 -0.769358
109.400000 -0.769358 -0.769358
109.450000 -0.769358 -0.769358
109.500000 -0.769358 -0.769358
109.550000 -0.769358 -0.769358
109.600000 -0.769358 -0.769358
109.650000 -0.769358 -0.769358
109.700000 -0.769358 -0.769358
109.750000 -0.769358 -0.769358
109.800000 -0.769358 -0.769358
109.850000 -0.769358 -0.769358
109.900000 -0.769358 -0.769358
109.950000 -0.769358 -0.769358
110.000000 -0.769358 -0.769358
110.050000 -0.769358 -0.769358
110.100000 -0.769358 -0.769358
110.150000 -0.769358 -0.769358
110.200000 -0.769358 -0.769358
110.250000 -0.769358 -0.769358
110.300000 -0.769358 -0.769358
110.350000 -0.769358 -0.769358
110.400000 -0.769358 -0.769358
110.450000 -0.769358 -0.769358
110.500000 -0.769358 -0.769358
110.550000 -0.769358 -0.769358
110.600000 -0.769358 -0.769358
110.650000 -0.769358 -0.769358
110.700000 -0.769358 -0.769358
110.750000 -0.769358 -0.769358
110.800000 -0.769358 -0.769358
110.850000 -0.769358 -0.769358
110.900000 -0.769358 -0.769358
110.950000 -0.769358 -0.769358
111.000000 -0.769358 -0.769358
111.050000 -0.769358 -0.769358
111.100000 -0.769358 -0.769358
111.150000 -0.769358 -0.769358
111.200000 -0.769358 -0.769358
111.250000 -0.769358 -0.769358
111.300000 -0.769358 -0.769358
111.350000 -0.769358 -0.769358
111.400000 -0.769358 -0.769358
111.450000 -0.769358 -0.769358
111.500000 -0.769358 -0.769358
111.550000 -0.769358 -0.769358
111.600000 -0.769358 -0.769358
111.650000 -0.769358 -0.769358
111.700000 -0.769358 -0.769358
111.750000 -0.769358 -0.769358
111.800000 -0.769358 -0.769358
111.850000 -0.769358 -0.769358
111.900000 -0.769358 -0.769358
111.950000 -0.769358 -0.769358
112.000000 -0.769358 -0.769358
112.050000 -0.769358 -0.769358
112.100000 -0.769358 -0.769358
112.150000 -0.769358 -0.769358
112.200000 -0.769358 -0.769358
112.250000 -0.769358 -0.769358
112.300000 -0.769358 -0.769358
112.350000 -0.769358 -0.769358
112.400000 -0.769358 -0.769358
112.450000 -0.769358 -0.769358
112.500000 -0.769358 -0.769358
112.550000 -0.769358 -0.769358
112.600000 -0.769358 -0.769358
112.650000 -0.769358 -0.769358
112.700000 -0.769358 -0.769358
112.750000 -0.769358 -0.769358
112.800000 -0.769358 -0.769358
112.850000 -0.769358 -0.769358
112.900000 -0.769358 -0.769358
112.950000 -0.769358 -0.769358
113.000000 -0.769358 -0.769358
113.050000 -0.769358 -0.769358
113.100000 -0.769358 -0.769358
113.150000 -0.769358 -0.769358
113.200000 -0.769358 -0.769358
113.250000 -0.769358 -0.769358
113.300000 -0.769358 -0.769358
113.350000 -0.769358 -0.769358
113.400000 -0.769358 -0.769358
113.450000 -0.769358 -0.769358
113.500000 -0.769358 -0.769358
113.550000 -0.769358 -0.769358
113.600000 -0.769358 -0.769358
113.650000 -0.769358 -0.769358
113.700000 -0.769358 -0.769358
113.750000 -0.769358 -0.769358
113.800000 -0.769358 -0.769358
113.850000 -0.769358 -0.769358
113.900000 -0.769358 -0.769358
113.950000 -0.769358 -0.769358
114.000000 -0.769358 -0.769358
114.050000 -0.769358 -0.769358
114.100000 -0.769358 -0.769358
114.150000 -0.769358 -0.769358
114.200000 -0.769358 -0.769358
114.250000 -0.769358 -0.769358
114.300000 -0.769358 -0.769358
114.350000 -0.769358 -0.769358
114.400000 -0.769358 -0.769358
114.450000 -0.769358 -0.769358
114.500000 -0.769358 -0.769358
114.550000 -0.769358 -0.769358
114.600000 -0.769358 -0.769358
114.650000 -0.769358 -0.769358
114.700000 -0.769358 -0.769358
114.750000 -0.769358 -0.769358
114.800000 -0.769358 -0.769358
114.850000 -0.769358 -0.769358
114.900000 -0.769358 -0.769358
114.950000 -0.769358 -0.769358
115.000000 -0.769358 -0.769358
115.050000 -0.769358 -0.769358
115.100000 -0.769358 -0.769358
115.150000 -0.769358 -0.769358
115.200000 -0.769358 -0.769358
115.250000 -0.769358 -0.769358
115.300000 -0.769358 -0.769358
115.350000 -0.769358 -0.769358
115.400000 -0.769358 -0.769358
115.450000 -0.769358 -0.769358
115.500000 -0.769358 -0.769358
115.550000 -0.769358 -0.769358
115.600000 -0.769358 -0.769358
115.650000 -0.769358 -0.769358
115.700000 -0.769358 -0.769358
115.750000 -0.769358 -0.769358
115.800000 -0.769358 -0.769358
115.850000 -0.769358 -0.769358
115.900000 -0.769358 -0.769358
115.950000 -0.769358 -0.769358
116.000000 -0.769358 -0.769358
116.050000 -0.769358 -0.769358
116.100000 -0.769358 -0.769358
116.150000 -0.769358 -0.769358
116.200000 -0.769358 -0.769358
116.250000 -0.769358 -0.769358
116.300000 -0.769358 -0.769358
116.350000 -0.769358 -0.769358
116.400000 -0.769358 -0.769358
116.450000 -0.769358 -0.769358
116.500000 -0.769358 -0.769358
116.550000 -0.769358 -0.769358
116.600000 -0.769358 -0.769358
116.650000 -0.769358 -0.769358
116.700000 -0.769358 -0.769358
116.750000 -0.769358 -0.769358
116.800000 -0.769358 -0.769358
116.850000 -0.769358 -0.769358
116.900000 -0.769358 -0.769358
116.950000 -0.769358 -0.769358
117.000000 -0.769358 -0.769358
117.050000 -0.769358 -0.769358
117.100000 -0.769358 -0.769358
117.150000 -0.769358 -0.769358
117.200000 -0.769358 -0.769358
117.250000 -0.769358 -0.769358
117.300000 -0.769358 -0.769358
117.350000 -0.769358 -0.769358
117.400000 -0.769358 -0.769358
117.450000 -0.769358 -0.769358
117.500000 -0.769358 -0.769358
117.550000 -0.769358 -0.769358
117.600000 -0.769358 -0.769358
117.650000 -0.769358 -0.769358
117.700000 -0.769358 -0.769358
117.750000 -0.769358 -0.769358
117.800000 -0.769358 -0.769358
117.850000 -0.769358 -0.769358
117.900000 -0.769358 -0.769358
117.950000 -0.769358 -0.769358
118.000000 -0.769358 -0.769358
118.050000 -0.769358 -0.769358
118.100000 -0.769358 -0.769358
118.150000 -0.769358 -0.769358
118.200000 -0.769358 -0.769358
118.250000 -0.769358 -0.769358
118.300000 -0.769358 -0.769358
118.350000 -0.769358 -0.769358
118.400000 -0.769358 -0.769358
118.450000 -0.769358 -0.769358
118.500000 -0.769358 -0.769358
118.550000 -0.769358 -0.769358
118.600000 -0.769358 -0.769358
118.650000 -0.769358 -0.769358
118.700000 -0.769358 -0.769358
118.750000 -0.769358 -0.769358
118.800000 -0.769358 -0.769358
118.850000 -0.769358 -0.769358
118.900000 -0.769358 -0.769358
118.950000 -0.769358 -0.769358
119.000000 -0.769358 -0.769358
119.050000 -0.769358 -0.769358
119.100000 -0.769358 -0.769358
119.150000 -0.769358 -0.769358
119.200000 -0.769358 -0.769358
119.250000 -0.769358 -0.769358
119.300000 -0.769358 -0.769358
119.350000 -0.769358 -0.769358
119.400000 -0.769358 -0.769358
119.450000 -0.769358 -0.769358
119.500000 -0.769358 -0.769358
119.550000 -0.769358 -0.769358
119.600000 -0.769358 -0.769358
119.650000 -0.769358 -0.769358
119.700000 -0.769358 -0.769358
119.750000 -0.769358 -0.769358
119.800000 -0.769358 -0.769358
119.850000 -0.769358 -0.769358
119.900000 -0.769358 -0.769358
119.950000 -0.769358 -0.769358
120.000000 -0.769358 -0.769358
120.050000 -0.769358 -0.769358
120.100000 -0.769358 -0.769358
120.150000 -0.769358 -0.769358
120.200000 -0.769358 -0.769358
120.250000 -0.769358 -0.769358
120.300000 -0.769358 -0.769358
120.350000 -0.769358 -0.769358
120.400000 -0.769358 -0.769358
120.450000 -0.769358 -0.769358
120.500000 -0.769358 -0.769358
120.550000 -0.769358 -0.769358
120.600000 -0.769358 -0.769358
120.650000 -0.769358 -0.769358
120.700000 -0.769358 -0.769358
120.750000 -0.769358 -0.769358
120.800000 -0.769358 -0.769358
120.850000 -0.769358 -0.769358
120.900000 -0.769358 -0.769358
120.950000 -0.769358 -0.769358
121.000000 -0.769358 -0.769358
121.050000 -0.769358 -0.769358
121.100000 -0.769358 -0.769358
121.150000 -0.769358 -0.769358
121.200000 -0.769358 -0.769358
121.250000 -0.769358 -0.769358
121.300000 -0.769358 -0.769358
121.350000 -0.769358 -0.769358
121.400000 -0.769358 -0.769358
121.450000 -0.769358 -0.769358
121.500000 -0.769358 -0.769358
121.550000 -0.769358 -0.769358
121.600000 -0.769358 -0.769358
121.650000 -0.769358 -0.769358
121.700000 -0.769358 -0.769358
121.750000 -0.769358 -0.769358
121.800000 -0.769358 -0.769358
121.850000 -0.769358 -0.769358
121.900000 -0.769358 -0.769358
121.950000 -0.769358 -0.769358
122.000000 -0.769358 -0.769358
122.050000 -0.769358 -0.769358
122.100000 -0.769358 -0.769358
122.150000 -0.769358 -0.769358
122.200000 -0.769358 -0.769358
122.250000 -0.769358 -0.769358
122.300000 -0.769358 -0.769358
122.350000 -0.769358 -0.769358
122.400000 -0.769358 -0.769358
122.450000 -0.769358 -0.769358
122.500000 -0.769358 -0.769358
122.550000 -0.769358 -0.769358
122.600000 -0.769358 -0.769358
122.650000 -0.769358 -0.769358
122.700000 -0.769358 -0.769358
122.750000 -0.769358 -0.769358
122.800000 -0.769358 -0.769358
122.850000 -0.769358 -0.769358
122.900000 -0.769358 -0.769358
122.950000 -0.769358 -0.769358
123.000000 -0.769358 -0.769358
123.050000 -0.769358 -0.769358
123.100000 -0.769358 -0.769358
123.150000 -0.769358 -0.769358
123.200000 -0.769358 -0.769358
123.250000 -0.769358 -0.769358
123.300000 -0.769358 -0.769358
123.350000 -0.769358 -0.769358
123.400000 -0.769358 -0.769358
123.450000 -0.769358 -0.769358
123.500000 -0.769358 -0.769358
123.550000 -0.769358 -0.769358
123.600000 -0.769358 -0.769358
123.650000 -0.769358 -0.769358
123.700000 -0.769358 -0.769358
123.750000 -0.769358 -0.769358
123.800000 -0.769358 -0.769358
123.850000 -0.769358 -0.769358
123.900000 -0.769358 -0.769358
123.950000 -0.769358 -0.769358
124.000000 -0.769358 -0.769358
124.050000 -0.769358 -0.769358
124.100000 -0.769358 -0.769358
124.150000 -0.769358 -0.769358
124.200000 -0.769358 -0.769358
124.250000 -0.769358 -0.769358
124.300000 -0.769358 -0.769358
124.350000 -0.769358 -0.769358
124.400000 -0.769358 -0.769358
124.450000 -0.769358 -0.769358
124.500000 -0.769358 -0.769358
124.550000 -0.769358 -0.769358
124.600000 -0.769358 -0.769358
124.650000 -0.769358 -0.769358
124.700000 -0.769358 -0.769358
124.750000 -0.769358 -0.769358
124.800000 -0.769358 -0.769358
124.850000 -0.769358 -0.769358
124.900000 -0.769358 -0.769358
124.950000 -0.769358 -0.769358
125.000000 -0.769358 -0.769358
125.050000 -0.769358 -0.769358
125.100000 -0.769358 -0.769358
125.150000 -0.769358 -0.769358
125.200000 -0.769358 -0.769358
125.250000 -0.769358 -0.769358
125.300000 -0.769358 -0.769358
125.350000 -0.769358 -0.769358
125.400000 -0.769358 -0.769358
125.450000 -0.769358 -0.769358
125.500000 -0.769358 -0.769358
125.550000 -0.769358 -0.769358
125.600000 -0.769358 -0.769358
125.650000 -0.769358 -0.769358
125.700000 -0.769358 -0.769358
125.750000 -0.769358 -0.769358
125.800000 -0.769358 -0.769358
125.850000 -0.769358 -0.769358
125.900000 -0.769358 -0.769358
125.950000 -0.769358 -0.769358
126.000000 -0.769358 -0.769358
126.050000 -0.769358 -0.769358
126.100000 -0.769358 -0.769358
126.150000 -0.769358 -0.769358
126.200000 -0.769358 -0.769358
126.250000 -0.769358 -0.769358
126.300000 -0.769358 -0.769358
126.350000 -0.769358 -0.769358
126.400000 -0.769358 -0.769358
126.450000 -0.769358 -0.769358
126.500000 -0.769358 -0.769358
126.550000 -0.769358 -0.769358
126.600000 -0.769358 -0.769358
126.650000 -0.769358 -0.769358
126.700000 -0.769358 -0.769358
126.750000 -0.769358 -0.769358
126.800000 -0.769358 -0.769358
126.850000 -0.769358 -0.769358
126.900000 -0.769358 -0.769358
126.950000 -0.769358 -0.769358
127.000000 -0.769358 -0.769358
127.050000 -0.769358 -0.769358
127.100000 -0.769358 -0.769358
127.150000 -0.769358 -0.769358
127.200000 -0.769358 -0.769358
127.250000 -0.769358 -0.769358
127.300000 -0.769358 -0.769358
127.350000 -0.769358 -0.769358
127.400000 -0.769358 -0.769358
127.450000 -0.769358 -0.769358
127.500000 -0.769358 -0.769358
127.550000 -0.769358 -0.769358
127.600000 -0.769358 -0.769358
127.650000 -0.769358 -0.769358
127.700000 -0.769358 -0.769358
127.750000 -0.769358 -0.769358
127.800000 -0.769358 -0.769358
127.850000 -0.769358 -0.769358
127.900000 -0.769358 -0.769358
127.950000 -0.769358 -0.769358
128.000000 -0.769358 -0.769358
128.050000 -0.769358 -0.769358
128.100000 -0.769358 -0.769358
128.150000 -0.769358 -0.769358
128.200000 -0.769358 -0.769358
128.250000 -0.769358 -0.769358
128.300000 -0.769358 -0.769358
128.350000 -0.769358 -0.769358
128.400000 -0.769358 -0.769358
128.450000 -0.769358 -0.769358
128.500000 -0.769358 -0.769358
128.550000 -0.769358 -0.769358
128.600000 -0.769358 -0.769358
128.650000 -0.769358 -0.769358
128.700000 -0.769358 -0.769358
128.750000 -0.769358 -0.769358
128.800000 -0.769358 -0.769358
128.850000 -0.769358 -0.769358
128.900000 -0.769358 -0.769358
128.950000 -0.769358 -0.769358
129.000000 -0.769358 -0.769358
129.050000 -0.769358 -0.769358
129.100000 -0.769358 -0.769358
129.150000 -0.769358 -0.769358
129.200000 -0.769358 -0.769358
129.250000 -0.769358 -0.769358
129.300000 -0.769358 -0.769358
129.350000 -0.769358 -0.769358
129.400000 -0.769358 -0.769358
129.450000 -0.769358 -0.769358
129.500000 -0.769358 -0.769358
129.550000 -0.769358 -0.769358
129.600000 -0.769358 -0.769358
129.650000 -0.769358 -0.769358
129.700000 -0.769358 -0.769358
129.750000 -0.769358 -0.769358
129.800000 -0.769358 -0.769358
129.850000 -0.769358 -0.769358
129.900000 -0.769358 -0.769358
129.950000 -0.769358 -0.769358
130.000000 -0.769358 -0.769358
130.050000 -0.769358 -0.769358
130.100000 -0.769358 -0.769358
130.150000 -0.769358 -0.769358
130.200000 -0.769358 -0.769358
130.250000 -0.769358 -0.769358
130.300000 -0.769358 -0.769358
130.350000 -0.769358 -0.769358
130.400000 -0.769358 -0.769358
130.450000 -0.769358 -0.769358
130.500000 -0.769358 -0.769358
130.550000 -0.769358 -0.769358
130.600000 -0.769358 -0.769358
130.650000 -0.769358 -0.769358
130.700000 -0.769358 -0.769358
130.750000 -0.769358 -0.769358
130.800000 -0.769358 -0.769358
130.850000 -0.769358 -0.769358
130.900000 -0.769358 -0.769358
130.950000 -0.769358 -0.769358
131.000000 -0.769358 -0.769358
131.050000 -0.769358 -0.769358
131.100000 -0.769358 -0.769358
131.150000 -0.769358 -0.769358
131.200000 -0.769358 -0.769358
131.250000 -0.769358 -0.769358
131.300000 -0.769358 -0.769358
131.350000 -0.769358 -0.769358
131.400000 -0.769358 -0.769358
131.450000 -0.769358 -0.769358
131.500000 -0.769358 -0.769358
131.550000 -0.769358 -0.769358
131.600000 -0.769358 -0.769358
131.650000 -0.769358 -0.769358
131.700000 -0.769358 -0.769358
131.750000 -0.769358 -0.769358
131.800000 -0.769358 -0.769358
131.850000 -0.769358 -0.769358
131.900000 -0.769358 -0.769358
131.950000 -0.769358 -0.769358
132.000000 -0.769358 -0.769358
132.050000 -0.769358 -0.769358
132.100000 -0.769358 -0.769358
132.150000 -0.769358 -0.769358
132.200000 -0.769358 -0.769358
132.250000 -0.769358 -0.769358
132.300000 -0.769358 -0.769358
132.350000 -0.769358 -0.769358
132.400000 -0.769358 -0.769358
132.450000 -0.769358 -0.769358
132.500000 -0.769358 -0.769358
132.550000 -0.769358 -0.769358
132.600000 -0.769358 -0.769358
132.650000 -0.769358 -0.769358
132.700000 -0.769358 -0.769358
132.750000 -0.769358 -0.769358
132.800000 -0.769358 -0.769358
132.850000 -0.769358 -0.769358
132.900000 -0.769358 -0.769358
132.950000 -0.769358 -0.769358
133.000000 -0.769358 -0.769358
133.050000 -0.769358 -0.769358
133.100000 -0.769358 -0.769358
133.150000 -0.769358 -0.769358
133.200000 -0.769358 -0.769358
133.250000 -0.769358 -0.769358
133.300000 -0.769358 -0.769358
133.350000 -0.769358 -0.769358
133.400000 -0.769358 -0.769358
133.450000 -0.769358 -0.769358
133.500000 -0.769358 -0.769358
133.550000 -0.769358 -0.769358
133.600000 -0.769358 -0.769358
133.650000 -0.769358 -0.769358
133.700000 -0.769358 -0.769358
133.750000 -0.769358 -0.769358
133.800000 -0.769358 -0.769358
133.850000 -0.769358 -0.769358
133.900000 -0.769358 -0.769358
133.950000 -0.769358 -0.769358
134.000000 -0.769358 -0.769358
134.050000 -0.769358 -0.769358
134.100000 -0.769358 -0.769358
134.150000 -0.769358 -0.769358
134.200000 -0.769358 -0.769358
134.250000 -0.769358 -0.769358
134.300000 -0.769358 -0.769358
134.350000 -0.769358 -0.769358
134.400000 -0.769358 -0.769358
134.450000 -0.769358 -0.769358
134.500000 -0.769358 -0.769358
134.550000 -0.769358 -0.769358
134.600000 -0.769358 -0.769358
134.650000 -0.769358 -0.769358
134.700000 -0.769358 -0.769358
134.750000 -0.769358 -0.769358
134.800000 -0.769358 -0.769358
134.850000 -0.769358 -0.769358
134.900000 -0.769358 -0.769358
134.950000 -0.769358 -0.769358
135.000000 -0.769358 -0.769358
135.050000 -0.769358 -0.769358
135.100000 -0.769358 -0.769358
135.150000 -0.769358 -0.769358
135.200000 -0.769358 -0.769358
135.250000 -0.769358 -0.769358
135.300000 -0.769358 -0.769358
135.350000 -0.769358 -0.769358
135.400000 -0.769358 -0.769358
135.450000 -0.769358 -0.769358
135.500000 -0.769358 -0.769358
135.550000 -0.769358 -0.769358
135.600000 -0.769358 -0.769358
135.650000 -0.769358 -0.769358
135.700000 -0.769358 -0.769358
135.750000 -0.769358 -0.769358
135.800000 -0.769358 -0.769358
135.850000 -0.769358 -0.769358
135.900000 -0.769358 -0.769358
135.950000 -0.769358 -0.769358
136.000000 -0.769358 -0.769358
136.050000 -0.769358 -0.769358
136.100000 -0.769358 -0.769358
136.150000 -0.769358 -0.769358
136.200000 -0.769358 -0.769358
136.250000 -0.769358 -0.769358
136.300000 -0.769358 -0.769358
136.350000 -0.769358 -0.769358
136.400000 -0.769358 -0.769358
136.450000 -0.769358 -0.769358
136.500000 -0.769358 -0.769358
136.550000 -0.769358 -0.769358
136.600000 -0.769358 -0.769358
136.650000 -0.769358 -0.769358
136.700000 -0.769358 -0.769358
136.750000 -0.769358 -0.769358
136.800000 -0.769358 -0.769358
136.850000 -0.769358 -0.769358
136.900000 -0.769358 -0.769358
136.950000 -0.769358 -0.769358
137.000000 -0.769358 -0.769358
137.050000 -0.769358 -0.769358
137.100000 -0.769358 -0.769358
137.150000 -0.769358 -0.769358
137.200000 -0.769358 -0.769358
137.250000 -0.769358 -0.769358
137.300000 -0.769358 -0.769358
137.350000 -0.769358 -0.769358
137.400000 -0.769358 -0.769358
137.450000 -0.769358 -0.769358
137.500000 -0.769358 -0.769358
137.550000 -0.769358 -0.769358
137.600000 -0.769358 -0.769358
137.650000 -0.769358 -0.769358
137.700000 -0.769358 -0.769358
137.750000 -0.769358 -0.769358
137.800000 -0.769358 -0.769358
137.850000 -0.769358 -0.769358
137.900000 -0.769358 -0.769358
137.950000 -0.769358 -0.769358
138.000000 -0.769358 -0.769358
138.050000 -0.769358 -0.769358
138.100000 -0.769358 -0.769358
138.150000 -0.769358 -0.769358
138.200000 -0.769358 -0.769358
138.250000 -0.769358 -0.769358
138.300000 -0.769358 -0.769358
138.350000 -0.769358 -0.769358
138.400000 -0.769358 -0.769358
138.450000 -0.769358 -0.769358
138.500000 -0.769358 -0.769358
138.550000 -0.769358 -0.769358
138.600000 -0.769358 -0.769358
138.650000 -0.769358 -0.769358
138.700000 -0.769358 -0.769358
138.750000 -0.769358 -0.769358
138.800000 -0.769358 -0.769358
138.850000 -0.769358 -0.769358
138.900000 -0.769358 -0.769358
138.950000 -0.769358 -0.769358
139.000000 -0.769358 -0.769358
139.050000 -0.769358 -0.769358
139.100000 -0.769358 -0.769358
139.150000 -0.769358 -0.769358
139.200000 -0.769358 -0.769358
139.250000 -0.769358 -0.769358
139.300000 -0.769358 -0.769358
139.350000 -0.769358 -0.769358
139.400000 -0.769358 -0.769358
139.450000 -0.769358 -0.769358
139.500000 -0.769358 -0.769358
139.550000 -0.769358 -0.769358
139.600000 -0.769358 -0.769358
139.650000 -0.769358 -0.769358
139.700000 -0.769358 -0.769358
139.750000 -0.769358 -0.769358
139.800000 -0.769358 -0.769358
139.850000 -0.769358 -0.769358
139.900000 -0.769358 -0.769358
139.950000 -0.769358 -0.769358
140.000000 -0.769358 -0.769358
140.050000 -0.769358 -0.769358
140.100000 -0.769358 -0.769358
140.150000 -0.769358 -0.769358
140.200000 -0.769358 -0.769358
140.250000 -0.769358 -0.769358
140.300000 -0.769358 -0.769358
140.350000 -0.769358 -0.769358
140.400000 -0.769358 -0.769358
140.450000 -0.769358 -0.769358
140.500000 -0.769358 -0.769358
140.550000 -0.769358 -0.769358
140.600000 -0.769358 -0.769358
140.650000 -0.769358 -0.769358
140.700000 -0.769358 -0.769358
140.750000 -0.769358 -0.769358
140.800000 -0.769358 -0.769358
140.850000 -0.769358 -0.769358
140.900000 -0.769358 -0.769358
140.950000 -0.769358 -0.769358
141.000000 -0.769358 -0.769358
141.050000 -0.769358 -0.769358
141.100000 -0.769358 -0.769358
141.150000 -0.769358 -0.769358
141.200000 -0.769358 -0.769358
141.250000 -0.769358 -0.769358
141.300000 -0.769358 -0.769358
141.350000 -0.769358 -0.769358
141.400000 -0.769358 -0.769358
141.450000 -0.769358 -0.769358
141.500000 -0.769358 -0.769358
141.550000 -0.769358 -0.769358
141.600000 -0.769358 -0.769358
141.650000 -0.769358 -0.769358
141.700000 -0.769358 -0.769358
141.750000 -0.769358 -0.769358
141.800000 -0.769358 -0.769358
141.850000 -0.769358 -0.769358
141.900000 -0.769358 -0.769358
141.950000 -0.769358 -0.769358
142.000000 -0.769358 -0.769358
142.050000 -0.769358 -0.769358
142.100000 -0.769358 -0.769358
142.150000 -0.769358 -0.769358
142.200000 -0.769358 -0.769358
142.250000 -0.769358 -0.769358
142.300000 -0.769358 -0.769358
142.350000 -0.769358 -0.769358
142.400000 -0.769358 -0.769358
142.450000 -0.769358 -0.769358
142.500000 -0.769358 -0.769358
142.550000 -0.769358 -0.769358
142.600000 -0.769358 -0.769358
142.650000 -0.769358 -0.769358
142.700000 -0.769358 -0.769358
142.750000 -0.769358 -0.769358
142.800000 -0.769358 -0.769358
142.850000 -0.769358 -0.769358
142.900000 -0.769358 -0.769358
142.950000 -0.769358 -0.769358
143.000000 -0.769358 -0.769358
143.050000 -0.769358 -0.769358
143.100000 -0.769358 -0.769358
143.150000 -0.769358 -0.769358
143.200000 -0.769358 -0.769358
143.250000 -0.769358 -0.769358
143.300000 -0.769358 -0.769358
143.350000 -0.769358 -0.769358
143.400000 -0.769358 -0.769358
143.450000 -0.769358 -0.769358
143.500000 -0.769358 -0.769358
143.550000 -0.769358 -0.769358
143.600000 -0.769358 -0.769358
143.650000 -0.769358 -0.769358
143.700000 -0.769358 -0.769358
143.750000 -0.769358 -0.769358
143.800000 -0.769358 -0.769358
143.850000 -0.769358 -0.769358
143.900000 -0.769358 -0.769358
143.950000 -0.769358 -0.769358
144.000000 -0.769358 -0.769358
144.050000 -0.769358 -0.769358
144.100000 -0.769358 -0.769358
144.150000 -0.769358 -0.769358
144.200000 -0.769358 -0.769358
144.250000 -0.769358 -0.769358
144.300000 -0.769358 -0.769358
144.350000 -0.769358 -0.769358
144.400000 -0.769358 -0.769358
144.450000 -0.769358 -0.769358
144.500000 -0.769358 -0.769358
144.550000 -0.769358 -0.769358
144.600000 -0.769358 -0.769358
144.650000 -0.769358 -0.769358
144.700000 -0.769358 -0.769358
144.750000 -0.769358 -0.769358
144.800000 -0.769358 -0.769358
144.850000 -0.769358 -0.769358
144.900000 -0.769358 -0.769358
144.950000 -0.769358 -0.769358
145.000000 -0.769358 -0.769358
145.050000 -0.769358 -0.769358
145.100000 -0.769358 -0.769358
145.150000 -0.769358 -0.769358
145.200000 -0.769358 -0.769358
145.250000 -0.769358 -0.769358
145.300000 -0.769358 -0.769358
145.350000 -0.769358 -0.769358
145.400000 -0.769358 -0.769358
145.450000 -0.769358 -0.769358
145.500000 -0.769358 -0.769358
145.550000 -0.769358 -0.769358
145.600000 -0.769358 -0.769358
145.650000 -0.769358 -0.769358
145.700000 -0.769358 -0.769358
145.750000 -0.769358 -0.769358
145.800000 -0.769358 -0.769358
145.850000 -0.769358 -0.769358
145.900000 -0.769358 -0.769358
145.950000 -0.769358 -0.769358
146.000000 -0.769358 -0.769358
146.050000 -0.769358 -0.769358
146.100000 -0.769358 -0.769358
146.150000 -0.769358 -0.769358
146.200000 -0.769358 -0.769358
146.250000 -0.769358 -0.769358
146.300000 -0.769358 -0.769358
146.350000 -0.769358 -0.769358
146.400000 -0.769358 -0.769358
146.450000 -0.769358 -0.769358
146.500000 -0.769358 -0.769358
146.550000 -0.769358 -0.769358
146.600000 -0.769358 -0.769358
146.650000 -0.769358 -0.769358
146.700000 -0.769358 -0.769358
146.750000 -0.769358 -0.769358
146.800000 -0.769358 -0.769358
146.850000 -0.769358 -0.769358
146.900000 -0.769358 -0.769358
146.950000 -0.769358 -0.769358
147.000000 -0.769358 -0.769358
147.050000 -0.769358 -0.769358
147.100000 -0.769358 -0.769358
147.150000 -0.769358 -0.769358
147.200000 -0.769358 -0.769358
147.250000 -0.769358 -0.769358
147.300000 -0.769358 -0.769358
147.350000 -0.769358 -0.769358
147.400000 -0.769358 -0.769358
147.450000 -0.769358 -0.769358
147.500000 -0.769358 -0.769358
147.550000 -0.769358 -0.769358
147.600000 -0.769358 -0.769358
147.650000 -0.769358 -0.769358
147.700000 -0.769358 -0.769358
147.750000 -0.769358 -0.769358
147.800000 -0.769358 -0.769358
147.850000 -0.769358 -0.769358
147.900000 -0.769358 -0.769358
147.950000 -0.769358 -0.769358
148.000000 -0.769358 -0.769358
148.050000 -0.769358 -0.769358
148.100000 -0.769358 -0.769358
148.150000 -0.769358 -0.769358
148.200000 -0.769358 -0.769358
148.250000 -0.769358 -0.769358
148.300000 -0.769358 -0.769358
148.350000 -0.769358 -0.769358
148.400000 -0.769358 -0.769358
148.450000 -0.769358 -0.769358
148.500000 -0.769358 -0.769358
148.550000 -0.769358 -0.769358
148.600000 -0.769358 -0.769358
148.650000 -0.769358 -0.769358
148.700000 -0.769358 -0.769358
148.750000 -0.769358 -0.769358
148.800000 -0.769358 -0.769358
148.850000 -0.769358 -0.769358
148.900000 -0.769358 -0.769358
148.950000 -0.769358 -0.769358
149.000000 -0.769358 -0.769358
149.050000 -0.769358 -0.769358
149.100000 -0.769358 -0.769358
149.150000 -0.769358 -0.769358
149.200000 -0.769358 -0.769358
149.250000 -0.769358 -0.769358
149.300000 -0.769358 -0.769358
149.350000 -0.769358 -0.769358
149.400000 -0.769358 -0.769358
149.450000 -0.769358 -0.769358
149.500000 -0.769358 -0.769358
149.550000 -0.769358 -0.769358
149.600000 -0.769358 -0.769358
149.650000 -0.769358 -0.769358
149.700000 -0.769358 -0.769358
149.750000 -0.769358 -0.769358
149.800000 -0.769358 -0.769358
149.850000 -0.769358 -0.769358
149.900000 -0.769358 -0.769358
149.950000 -0.769358 -0.769358
150.000000 -0.769358 -0.769358
150.050000 -0.769358 -0.769358
150.100000 -0.769358 -0.769358
150.150000 -0.769358 -0.769358
150.200000 -0.769358 -0.769358
150.250000 -0.769358 -0.769358
150.300000 -0.769358 -0.769358
150.350000 -0.769358 -0.769358
150.400000 -0.769358 -0.769358
150.450000 -0.769358 -0.769358
150.500000 -0.769358 -0.769358
150.550000 -0.769358 -0.769358
150.600000 -0.769358 -0.769358
150.650000 -0.769358 -0.769358
150.700000 -0.769358 -0.769358
150.750000 -0.769358 -0.769358
150.800000 -0.769358 -0.769358
150.850000 -0.769358 -0.769358
150.900000 -0.769358 -0.769358
150.950000 -0.769358 -0.769358
151.000000 -0.769358 -0.769358
151.050000 -0.769358 -0.769358
151.100000 -0.769358 -0.769358
151.150000 -0.769358 -0.769358
151.200000 -0.769358 -0.769358
151.250000 -0.769358 -0.769358
151.300000 -0.769358 -0.769358
151.350000 -0.769358 -0.769358
151.400000 -0.769358 -0.769358
151.450000 -0.769358 -0.769358
151.500000 -0.769358 -0.769358
151.550000 -0.769358 -0.769358
151.600000 -0.769358 -0.769358
151.650000 -0.769358 -0.769358
151.700000 -0.769358 -0.769358
151.750000 -0.769358 -0.769358
151.800000 -0.769358 -0.769358
151.850000 -0.769358 -0.769358
151.900000 -0.769358 -0.769358
151.950000 -0.769358 -0.769358
152.000000 -0.769358 -0.769358
152.050000 -0.769358 -0.769358
152.100000 -0.769358 -0.769358
152.150000 -0.769358 -0.769358
152.200000 -0.769358 -0.769358
152.250000 -0.769358 -0.769358
152.300000 -0.769358 -0.769358
152.350000 -0.769358 -0.769358
152.400000 -0.769358 -0.769358
152.450000 -0.769358 -0.769358
152.500000 -0.769358 -0.769358
152.550000 -0.769358 -0.769358
152.600000 -0.769358 -0.769358
152.650000 -0.769358 -0.769358
152.700000 -0.769358 -0.769358
152.750000 -0.769358 -0.769358
152.800000 -0.769358 -0.769358
152.850000 -0.769358 -0.769358
152.900000 -0.769358 -0.769358
152.950000 -0.769358 -0.769358
153.000000 -0.769358 -0.769358
153.050000 -0.769358 -0.769358
153.100000 -0.769358 -0.769358
153.150000 -0.769358 -0.769358
153.200000 -0.769358 -0.769358
153.250000 -0.769358 -0.769358
153.300000 -0.769358 -0.769358
153.350000 -0.769358 -0.769358
153.400000 -0.769358 -0.769358
153.450000 -0.769358 -0.769358
153.500000 -0.769358 -0.769358
153.550000 -0.769358 -0.769358
153.600000 -0.769358 -0.769358
153.650000 -0.769358 -0.769358
153.700000 -0.769358 -0.769358
153.750000 -0.769358 -0.769358
153.800000 -0.769358 -0.769358
153.850000 -0.769358 -0.769358
153.900000 -0.769358 -0.769358
153.950000 -0.769358 -0.769358
154.000000 -0.769358 -0.769358
154.050000 -0.769358 -0.769358
154.100000 -0.769358 -0.769358
154.150000 -0.769358 -0.769358
154.200000 -0.769358 -0.769358
154.250000 -0.769358 -0.769358
154.300000 -0.769358 -0.769358
154.350000 -0.769358 -0.769358
154.400000 -0.769358 -0.769358
154.450000 -0.769358 -0.769358
154.500000 -0.769358 -0.769358
154.550000 -0.769358 -0.769358
154.600000 -0.769358 -0.769358
154.650000 -0.769358 -0.769358
154.700000 -0.769358 -0.769358
154.750000 -0.769358 -0.769358
154.800000 -0.769358 -0.769358
154.850000 -0.769358 -0.769358
154.900000 -0.769358 -0.769358
154.950000 -0.769358 -0.769358
155.000000 -0.769358 -0.769358
155.050000 -0.769358 -0.769358
155.100000 -0.769358 -0.769358
155.150000 -0.769358 -0.769358
155.200000 -0.769358 -0.769358
155.250000 -0.769358 -0.769358
155.300000 -0.769358 -0.769358
155.350000 -0.769358 -0.769358
155.400000 -0.769358 -0.769358
155.450000 -0.769358 -0.769358
155.500000 -0.769358 -0.769358
155.550000 -0.769358 -0.769358
155.600000 -0.769358 -0.769358
155.650000 -0.769358 -0.769358
155.700000 -0.769358 -0.769358
155.750000 -0.769358 -0.769358
155.800000 -0.769358 -0.769358
155.850000 -0.769358 -0.769358
155.900000 -0.769358 -0.769358
155.950000 -0.769358 -0.769358
156.000000 -0.769358 -0.769358
156.050000 -0.769358 -0.769358
156.100000 -0.769358 -0.769358
156.150000 -0.769358 -0.769358
156.200000 -0.769358 -0.769358
156.250000 -0.769358 -0.769358
156.300000 -0.769358 -0.769358
156.350000 -0.769358 -0.769358
156.400000 -0.769358 -0.769358
156.450000 -0.769358 -0.769358
156.500000 -0.769358 -0.769358
156.550000 -0.769358 -0.769358
156.600000 -0.769358 -0.769358
156.650000 -0.769358 -0.769358
156.700000 -0.769358 -0.769358
156.750000 -0.769358 -0.769358
156.800000 -0.769358 -0.769358
156.850000 -0.769358 -0.769358
156.900000 -0.769358 -0.769358
156.950000 -0.769358 -0.769358
157.000000 -0.769358 -0.769358
157.050000 -0.769358 -0.769358
157.100000 -0.769358 -0.769358
157.150000 -0.769358 -0.769358
157.200000 -0.769358 -0.769358
157.250000 -0.769358 -0.769358
157.300000 -0.769358 -0.769358
157.350000 -0.769358 -0.769358
157.400000 -0.769358 -0.769358
157.450000 -0.769358 -0.769358
157.500000 -0.769358 -0.769358
157.550000 -0.769358 -0.769358
157.600000 -0.769358 -0.769358
157.650000 -0.769358 -0.769358
157.700000 -0.769358 -0.769358
157.750000 -0.769358 -0.769358
157.800000 -0.769358 -0.769358
157.850000 -0.769358 -0.769358
157.900000 -0.769358 -0.769358
157.950000 -0.769358 -0.769358
158.000000 -0.769358 -0.769358
158.050000 -0.769358 -0.769358
158.100000 -0.769358 -0.769358
158.150000 -0.769358 -0.769358
158.200000 -0.769358 -0.769358
158.250000 -0.769358 -0.769358
158.300000 -0.769358 -0.769358
158.350000 -0.769358 -0.769358
158.400000 -0.769358 -0.769358
158.450000 -0.769358 -0.769358
158.500000 -0.769358 -0.769358
158.550000 -0.769358 -0.769358
158.600000 -0.769358 -0.769358
158.650000 -0.769358 -0.769358
158.700000 -0.769358 -0.769358
158.750000 -0.769358 -0.769358
158.800000 -0.769358 -0.769358
158.850000 -0.769358 -0.769358
158.900000 -0.769358 -0.769358
158.950000 -0.769358 -0.769358
159.000000 -0.769358 -0.769358
159.050000 -0.769358 -0.769358
159.100000 -0.769358 -0.769358
159.150000 -0.769358 -0.769358
159.200000 -0.769358 -0.769358
159.250000 -0.769358 -0.769358
159.300000 -0.769358 -0.769358
159.350000 -0.769358 -0.769358
159.400000 -0.769358 -0.769358
159.450000 -0.769358 -0.769358
159.500000 -0.769358 -0.769358
159.550000 -0.769358 -0.769358
159.600000 -0.769358 -0.769358
159.650000 -0.769358 -0.769358
159.700000 -0.769358 -0.769358
159.750000 -0.769358 -0.769358
159.800000 -0.769358 -0.769358
159.850000 -0.769358 -0.769358
159.900000 -0.769358 -0.769358
159.950000 -0.769358 -0.769358
160.000000 -0.769358 -0.769358
160.050000 -0.769358 -0.769358
160.100000 -0.769358 -0.769358
160.150000 -0.769358 -0.769358
160.200000 -0.769358 -0.769358
160.250000 -0.769358 -0.769358
160.300000 -0.769358 -0.769358
160.350000 -0.769358 -0.769358
160.400000 -0.769358 -0.769358
160.450000 -0.769358 -0.769358
160.500000 -0.769358 -0.769358
160.550000 -0.769358 -0.769358
160.600000 -0.769358 -0.769358
160.650000 -0.769358 -0.769358
160.700000 -0.769358 -0.769358
160.750000 -0.769358 -0.769358
160.800000 -0.769358 -0.769358
160.850000 -0.769358 -0.769358
160.900000 -0.769358 -0.769358
160.950000 -0.769358 -0.769358
161.000000 -0.769358 -0.769358
161.050000 -0.769358 -0.769358
161.100000 -0.769358 -0.769358
161.150000 -0.769358 -0.769358
161.200000 -0.769358 -0.769358
161.250000 -0.769358 -0.769358
161.300000 -0.769358 -0.769358
161.350000 -0.769358 -0.769358
161.400000 -0.769358 -0.769358
161.450000 -0.769358 -0.769358
161.500000 -0.769358 -0.769358
161.550000 -0.769358 -0.769358
161.600000 -0.769358 -0.769358
161.650000 -0.769358 -0.769358
161.700000 -0.769358 -0.769358
161.750000 -0.769358 -0.769358
161.800000 -0.769358 -0.769358
161.850000 -0.769358 -0.769358
161.900000 -0.769358 -0.769358
161.950000 -0.769358 -0.769358
162.000000 -0.769358 -0.769358
162.050000 -0.769358 -0.769358
162.100000 -0.769358 -0.769358
162.150000 -0.769358 -0.769358
162.200000 -0.769358 -0.769358
162.250000 -0.769358 -0.769358
162.300000 -0.769358 -0.769358
162.350000 -0.769358 -0.769358
162.400000 -0.769358 -0.769358
162.450000 -0.769358 -0.769358
162.500000 -0.769358 -0.769358
162.550000 -0.769358 -0.769358
162.600000 -0.769358 -0.769358
162.650000 -0.769358 -0.769358
162.700000 -0.769358 -0.769358
162.750000 -0.769358 -0.769358
162.800000 -0.769358 -0.769358
162.850000 -0.769358 -0.769358
162.900000 -0.769358 -0.769358
162.950000 -0.769358 -0.769358
163.000000 -0.769358 -0.769358
163.050000 -0.769358 -0.769358
163.100000 -0.769358 -0.769358
163.150000 -0.769358 -0.769358
163.200000 -0.769358 -0.769358
163.250000 -0.769358 -0.769358
163.300000 -0.769358 -0.769358
163.350000 -0.769358 -0.769358
163.400000 -0.769358 -0.769358
163.450000 -0.769358 -0.769358
163.500000 -0.769358 -0.769358
163.550000 -0.769358 -0.769358
163.600000 -0.769358 -0.769358
163.650000 -0.769358 -0.769358
163.700000 -0.769358 -0.769358
163.750000 -0.769358 -0.769358
163.800000 -0.769358 -0.769358
163.850000 -0.769358 -0.769358
163.900000 -0.769358 -0.769358
163.950000 -0.769358 -0.769358
164.000000 -0.769358 -0.769358
164.050000 -0.769358 -0.769358
164.100000 -0.769358 -0.769358
164.150000 -0.769358 -0.769358
164.200000 -0.769358 -0.769358
164.250000 -0.769358 -0.769358
164.300000 -0.769358 -0.769358
164.350000 -0.769358 -0.769358
164.400000 -0.769358 -0.769358
164.450000 -0.769358 -0.769358
164.500000 -0.769358 -0.769358
164.550000 -0.769358 -0.769358
164.600000 -0.769358 -0.769358
164.650000 -0.769358 -0.769358
164.700000 -0.769358 -0.769358
164.750000 -0.769358 -0.769358
164.800000 -0.769358 -0.769358
164.850000 -0.769358 -0.769358
164.900000 -0.769358 -0.769358
164.950000 -0.769358 -0.769358
165.000000 -0.769358 -0.769358
165.050000 -0.769358 -0.769358
165.100000 -0.769358 -0.769358
165.150000 -0.769358 -0.769358
165.200000 -0.769358 -0.769358
165.250000 -0.769358 -0.769358
165.300000 -0.769358 -0.769358
165.350000 -0.769358 -0.769358
165.400000 -0.769358 -0.769358
165.450000 -0.769358 -0.769358
165.500000 -0.769358 -0.769358
165.550000 -0.769358 -0.769358
165.600000 -0.769358 -0.769358
165.650000 -0.769358 -0.769358
165.700000 -0.769358 -0.769358
165.750000 -0.769358 -0.769358
165.800000 -0.769358 -0.769358
165.850000 -0.769358 -0.769358
165.900000 -0.769358 -0.769358
165.950000 -0.769358 -0.769358
166.000000 -0.769358 -0.769358
166.050000 -0.769358 -0.769358
166.100000 -0.769358 -0.769358
166.150000 -0.769358 -0.769358
166.200000 -0.769358 -0.769358
166.250000 -0.769358 -0.769358
166.300000 -0.769358 -0.769358
166.350000 -0.769358 -0.769358
166.400000 -0.769358 -0.769358
166.450000 -0.769358 -0.769358
166.500000 -0.769358 -0.769358
166.550000 -0.769358 -0.769358
166.600000 -0.769358 -0.769358
166.650000 -0.769358 -0.769358
166.700000 -0.769358 -0.769358
166.750000 -0.769358 -0.769358
166.800000 -0.769358 -0.769358
166.850000 -0.769358 -0.769358
166.900000 -0.769358 -0.769358
166.950000 -0.769358 -0.769358
167.000000 -0.769358 -0.769358
167.050000 -0.769358 -0.769358
167.100000 -0.769358 -0.769358
167.150000 -0.769358 -0.769358
167.200000 -0.769358 -0.769358
167.250000 -0.769358 -0.769358
167.300000 -0.769358 -0.769358
167.350000 -0.769358 -0.769358
167.400000 -0.769358 -0.769358
167.450000 -0.769358 -0.769358
167.500000 -0.769358 -0.769358
167.550000 -0.769358 -0.769358
167.600000 -0.769358 -0.769358
167.650000 -0.769358 -0.769358
167.700000 -0.769358 -0.769358
167.750000 -0.769358 -0.769358
167.800000 -0.769358 -0.769358
167.850000 -0.769358 -0.769358
167.900000 -0.769358 -0.769358
167.950000 -0.769358 -0.769358
168.000000 -0.769358 -0.769358
168.050000 -0.769358 -0.769358
168.100000 -0.769358 -0.769358
168.150000 -0.769358 -0.769358
168.200000 -0.769358 -0.769358
168.250000 -0.769358 -0.769358
168.300000 -0.769358 -0.769358
168.350000 -0.769358 -0.769358
168.400000 -0.769358 -0.769358
168.450000 -0.769358 -0.769358
168.500000 -0.769358 -0.769358
168.550000 -0.769358 -0.769358
168.600000 -0.769358 -0.769358
168.650000 -0.769358 -0.769358
168.700000 -0.769358 -0.769358
168.750000 -0.769358 -0.769358
168.800000 -0.769358 -0.769358
168.850000 -0.769358 -0.769358
168.900000 -0.769358 -0.769358
168.950000 -0.769358 -0.769358
169.000000 -0.769358 -0.769358
169.050000 -0.769358 -0.769358
169.100000 -0.769358 -0.769358
169.150000 -0.769358 -0.769358
169.200000 -0.769358 -0.769358
169.250000 -0.769358 -0.769358
169.300000 -0.769358 -0.769358
169.350000 -0.769358 -0.769358
169.400000 -0.769358 -0.769358
169.450000 -0.769358 -0.769358
169.500000 -0.769358 -0.769358
169.550000 -0.769358 -0.769358
169.600000 -0.769358 -0.769358
169.650000 -0.769358 -0.769358
169.700000 -0.769358 -0.769358
169.750000 -0.769358 -0.769358
169.800000 -0.769358 -0.769358
169.850000 -0.769358 -0.769358
169.900000 -0.769358 -0.769358
169.950000 -0.769358 -0.769358
170.000000 -0.769358 -0.769358
170.050000 -0.769358 -0.769358
170.100000 -0.769358 -0.769358
170.150000 -0.769358 -0.769358
170.200000 -0.769358 -0.769358
170.250000 -0.769358 -0.769358
170.300000 -0.769358 -0.769358
170.350000 -0.769358 -0.769358
170.400000 -0.769358 -0.769358
170.450000 -0.769358 -0.769358
170.500000 -0.769358 -0.769358
170.550000 -0.769358 -0.769358
170.600000 -0.769358 -0.769358
170.650000 -0.769358 -0.769358
170.700000 -0.769358 -0.769358
170.750000 -0.769358 -0.769358
170.800000 -0.769358 -0.769358
170.850000 -0.769358 -0.769358
170.900000 -0.769358 -0.769358
170.950000 -0.769358 -0.769358
171.000000 -0.769358 -0.769358
171.050000 -0.769358 -0.769358
171.100000 -0.769358 -0.769358
171.150000 -0.769358 -0.769358
171.200000 -0.769358 -0.769358
171.250000 -0.769358 -0.769358
171.300000 -0.769358 -0.769358
171.350000 -0.769358 -0.769358
171.400000 -0.769358 -0.769358
171.450000 -0.769358 -0.769358
171.500000 -0.769358 -0.769358
171.550000 -0.769358 -0.769358
171.600000 -0.769358 -0.769358
171.650000 -0.769358 -0.769358
171.700000 -0.769358 -0.769358
171.750000 -0.769358 -0.769358
171.800000 -0.769358 -0.769358
171.850000 -0.769358 -0.769358
171.900000 -0.769358 -0.769358
171.950000 -0.769358 -0.769358
172.000000 -0.769358 -0.769358
172.050000 -0.769358 -0.769358
172.100000 -0.769358 -0.769358
172.150000 -0.769358 -0.769358
172.200000 -0.769358 -0.769358
172.250000 -0.769358 -0.769358
172.300000 -0.769358 -0.769358
172.350000 -0.769358 -0.769358
172.400000 -0.769358 -0.769358
172.450000 -0.769358 -0.769358
172.500000 -0.769358 -0.769358
172.550000 -0.769358 -0.769358
172.600000 -0.769358 -0.769358
172.650000 -0.769358 -0.769358
172.700000 -0.769358 -0.769358
172.750000 -0.769358 -0.769358
172.800000 -0.769358 -0.769358
172.850000 -0.769358 -0.769358
172.900000 -0.769358 -0.769358
172.950000 -0.769358 -0.769358
173.000000 -0.769358 -0.769358
173.050000 -0.769358 -0.769358
173.100000 -0.769358 -0.769358
173.150000 -0.769358 -0.769358
173.200000 -0.769358 -0.769358
173.250000 -0.769358 -0.769358
173.300000 -0.769358 -0.769358
173.350000 -0.769358 -0.769358
173.400000 -0.769358 -0.769358
173.450000 -0.769358 -0.769358
173.500000 -0.769358 -0.769358
173.550000 -0.769358 -0.769358
173.600000 -0.769358 -0.769358
173.650000 -0.769358 -0.769358
173.700000 -0.769358 -0.769358
173.750000 -0.769358 -0.769358
173.800000 -0.769358 -0.769358
173.850000 -0.769358 -0.769358
173.900000 -0.769358 -0.769358
173.950000 -0.769358 -0.769358
174.000000 -0.769358 -0.769358
174.050000 -0.769358 -0.769358
174.100000 -0.769358 -0.769358
174.150000 -0.769358 -0.769358
174.200000 -0.769358 -0.769358
174.250000 -0.769358 -0.769358
174.300000 -0.769358 -0.769358
174.350000 -0.769358 -0.769358
174.400000 -0.769358 -0.769358
174.450000 -0.769358 -0.769358
174.500000 -0.769358 -0.769358
174.550000 -0.769358 -0.769358
174.600000 -0.769358 -0.769358
174.650000 -0.769358 -0.769358
174.700000 -0.769358 -0.769358
174.750000 -0.769358 -0.769358
174.800000 -0.769358 -0.769358
174.850000 -0.769358 -0.769358
174.900000 -0.769358 -0.769358
174.950000 -0.769358 -0.769358
175.000000 -0.769358 -0.769358
175.050000 -0.769358 -0.769358
175.100000 -0.769358 -0.769358
175.150000 -0.769358 -0.769358
175.200000 -0.769358 -0.769358
175.250000 -0.769358 -0.769358
175.300000 -0.769358 -0.769358
175.350000 -0.769358 -0.769358
175.400000 -0.769358 -0.769358
175.450000 -0.769358 -0.769358
175.500000 -0.769358 -0.769358
175.550000 -0.769358 -0.769358
175.600000 -0.769358 -0.769358
175.650000 -0.769358 -0.769358
175.700000 -0.769358 -0.769358
175.750000 -0.769358 -0.769358
175.800000 -0.769358 -0.769358
175.850000 -0.769358 -0.769358
175.900000 -0.769358 -0.769358
175.950000 -0.769358 -0.769358
176.000000 -0.769358 -0.769358
176.050000 -0.769358 -0.769358
176.100000 -0.769358 -0.769358
176.150000 -0.769358 -0.769358
176.200000 -0.769358 -0.769358
176.250000 -0.769358 -0.769358
176.300000 -0.769358 -0.769358
176.350000 -0.769358 -0.769358
176.400000 -0.769358 -0.769358
176.450000 -0.769358 -0.769358
176.500000 -0.769358 -0.769358
176.550000 -0.769358 -0.769358
176.600000 -0.769358 -0.769358
176.650000 -0.769358 -0.769358
176.700000 -0.769358 -0.769358
176.750000 -0.769358 -0.769358
176.800000 -0.769358 -0.769358
176.850000 -0.769358 -0.769358
176.900000 -0.769358 -0.769358
176.950000 -0.769358 -0.769358
177.000000 -0.769358 -0.769358
177.050000 -0.769358 -0.769358
177.100000 -0.769358 -0.769358
177.150000 -0.769358 -0.769358
177.200000 -0.769358 -0.769358
177.250000 -0.769358 -0.769358
177.300000 -0.769358 -0.769358
177.350000 -0.769358 -0.769358
177.400000 -0.769358 -0.769358
177.450000 -0.769358 -0.769358
177.500000 -0.769358 -0.769358
177.550000 -0.769358 -0.769358
177.600000 -0.769358 -0.769358
177.650000 -0.769358 -0.769358
177.700000 -0.769358 -0.769358
177.750000 -0.769358 -0.769358
177.800000 -0.769358 -0.769358
177.850000 -0.769358 -0.769358
177.900000 -0.769358 -0.769358
177.950000 -0.769358 -0.769358
178.000000 -0.769358 -0.769358
178.050000 -0.769358 -0.769358
178.100000 -0.769358 -0.769358
178.150000 -0.769358 -0.769358
178.200000 -0.769358 -0.769358
178.250000 -0.769358 -0.769358
178.300000 -0.769358 -0.769358
178.350000 -0.769358 -0.769358
178.400000 -0.769358 -0.769358
178.450000 -0.769358 -0.769358
178.500000 -0.769358 -0.769358
178.550000 -0.769358 -0.769358
178.600000 -0.769358 -0.769358
178.650000 -0.769358 -0.769358
178.700000 -0.769358 -0.769358
178.750000 -0.769358 -0.769358
178.800000 -0.769358 -0.769358
178.850000 -0.769358 -0.769358
178.900000 -0.769358 -0.769358
178.950000 -0.769358 -0.769358
179.000000 -0.769358 -0.769358
179.050000 -0.769358 -0.769358
179.100000 -0.769358 -0.769358
179.150000 -0.769358 -0.769358
179.200000 -0.769358 -0.769358
179.250000 -0.769358 -0.769358
179.300000 -0.769358 -0.769358
179.350000 -0.769358 -0.769358
179.400000 -0.769358 -0.769358
179.450000 -0.769358 -0.769358
179.500000 -0.769358 -0.769358
179.550000 -0.769358 -0.769358
179.600000 -0.769358 -0.769358
179.650000 -0.769358 -0.769358
179.700000 -0.769358 -0.769358
179.750000 -0.769358 -0.769358
179.800000 -0.769358 -0.769358
179.850000 -0.769358 -0.769358
179.900000 -0.769358 -0.769358
179.950000 -0.769358 -0.769358
180.000000 -0.769358 -0.769358
180.050000 -0.769358 -0.769358
180.100000 -0.769358 -0.769358
180.150000 -0.769358 -0.769358
180.200000 -0.769358 -0.769358
180.250000 -0.769358 -0.769358
180.300000 -0.769358 -0.769358
180.350000 -0.769358 -0.769358
180.400000 -0.769358 -0.769358
180.450000 -0.769358 -0.769358
180.500000 -0.769358 -0.769358
180.550000 -0.769358 -0.769358
180.600000 -0.769358 -0.769358
180.650000 -0.769358 -0.769358
180.700000 -0.769358 -0.769358
180.750000 -0.769358 -0.769358
180.800000 -0.769358 -0.769358
180.850000 -0.769358 -0.769358
180.900000 -0.769358 -0.769358
180.950000 -0.769358 -0.769358
181.000000 -0.769358 -0.769358
181.050000 -0.769358 -0.769358
181.100000 -0.769358 -0.769358
181.150000 -0.769358 -0.769358
181.200000 -0.769358 -0.769358
181.250000 -0.769358 -0.769358
181.300000 -0.769358 -0.769358
181.350000 -0.769358 -0.769358
181.400000 -0.769358 -0.769358
181.450000 -0.769358 -0.769358
181.500000 -0.769358 -0.769358
181.550000 -0.769358 -0.769358
181.600000 -0.769358 -0.769358
181.650000 -0.769358 -0.769358
181.700000 -0.769358 -0.769358
181.750000 -0.769358 -0.769358
181.800000 -0.769358 -0.769358
181.850000 -0.769358 -0.769358
181.900000 -0.769358 -0.769358
181.950000 -0.769358 -0.769358
182.000000 -0.769358 -0.769358
182.050000 -0.769358 -0.769358
182.100000 -0.769358 -0.769358
182.150000 -0.769358 -0.769358
182.200000 -0.769358 -0.769358
182.250000 -0.769358 -0.769358
182.300000 -0.769358 -0.769358
182.350000 -0.769358 -0.769358
182.400000 -0.769358 -0.769358
182.450000 -0.769358 -0.769358
182.500000 -0.769358 -0.769358
182.550000 -0.769358 -0.769358
182.600000 -0.769358 -0.769358
182.650000 -0.769358 -0.769358
182.700000 -0.769358 -0.769358
182.750000 -0.769358 -0.769358
182.800000 -0.769358 -0.769358
182.850000 -0.769358 -0.769358
182.900000 -0.769358 -0.769358
182.950000 -0.769358 -0.769358
183.000000 -0.769358 -0.769358
183.050000 -0.769358 -0.769358
183.100000 -0.769358 -0.769358
183.150000 -0.769358 -0.769358
183.200000 -0.769358 -0.769358
183.250000 -0.769358 -0.769358
183.300000 -0.769358 -0.769358
183.350000 -0.769358 -0.769358
183.400000 -0.769358 -0.769358
183.450000 -0.769358 -0.769358
183.500000 -0.769358 -0.769358
183.550000 -0.769358 -0.769358
183.600000 -0.769358 -0.769358
183.650000 -0.769358 -0.769358
183.700000 -0.769358 -0.769358
183.750000 -0.769358 -0.769358
183.800000 -0.769358 -0.769358
183.850000 -0.769358 -0.769358
183.900000 -0.769358 -0.769358
183.950000 -0.769358 -0.769358
184.000000 -0.769358 -0.769358
184.050000 -0.769358 -0.769358
184.100000 -0.769358 -0.769358
184.150000 -0.769358 -0.769358
184.200000 -0.769358 -0.769358
184.250000 -0.769358 -0.769358
184.300000 -0.769358 -0.769358
184.350000 -0.769358 -0.769358
184.400000 -0.769358 -0.769358
184.450000 -0.769358 -0.769358
184.500000 -0.769358 -0.769358
184.550000 -0.769358 -0.769358
184.600000 -0.769358 -0.769358
184.650000 -0.769358 -0.769358
184.700000 -0.769358 -0.769358
184.750000 -0.769358 -0.769358
184.800000 -0.769358 -0.769358
184.850000 -0.769358 -0.769358
184.900000 -0.769358 -0.769358
184.950000 -0.769358 -0.769358
185.000000 -0.769358 -0.769358
185.050000 -0.769358 -0.769358
185.100000 -0.769358 -0.769358
185.150000 -0.769358 -0.769358
185.200000 -0.769358 -0.769358
185.250000 -0.769358 -0.769358
185.300000 -0.769358 -0.769358
185.350000 -0.769358 -0.769358
185.400000 -0.769358 -0.769358
185.450000 -0.769358 -0.769358
185.500000 -0.769358 -0.769358
185.550000 -0.769358 -0.769358
185.600000 -0.769358 -0.769358
185.650000 -0.769358 -0.769358
185.700000 -0.769358 -0.769358
185.750000 -0.769358 -0.769358
185.800000 -0.769358 -0.769358
185.850000 -0.769358 -0.769358
185.900000 -0.769358 -0.769358
185.950000 -0.769358 -0.769358
186.000000 -0.769358 -0.769358
186.050000 -0.769358 -0.769358
186.100000 -0.769358 -0.769358
186.150000 -0.769358 -0.769358
186.200000 -0.769358 -0.769358
186.250000 -0.769358 -0.769358
186.300000 -0.769358 -0.769358
186.350000 -0.769358 -0.769358
186.400000 -0.769358 -0.769358
186.450000 -0.769358 -0.769358
186.500000 -0.769358 -0.769358
186.550000 -0.769358 -0.769358
186.600000 -0.769358 -0.769358
186.650000 -0.769358 -0.769358
186.700000 -0.769358 -0.769358
186.750000 -0.769358 -0.769358
186.800000 -0.769358 -0.769358
186.850000 -0.769358 -0.769358
