fit_time[ns] Functional_fit[mV] Thermal_fit[mV]
3.600000 30.285827 28.961216
3.650000 29.831717 28.396530
3.700000 29.353385 27.842798
3.750000 28.849126 27.299795
3.800000 28.318130 26.767301
3.850000 27.760480 26.245101
3.900000 27.177146 25.732984
3.950000 26.569939 25.230744
4.000000 25.941464 24.738180
4.050000 25.295039 24.255095
4.100000 24.634610 23.781296
4.150000 23.964642 23.316595
4.200000 23.290010 22.860808
4.250000 22.615866 22.413754
4.300000 21.947517 21.975258
4.350000 21.290290 21.545147
4.400000 20.649400 21.123252
4.450000 20.029823 20.709408
4.500000 19.436179 20.303454
4.550000 18.872615 19.905231
4.600000 18.342713 19.514586
4.650000 17.849402 19.131366
4.700000 17.394894 18.755424
4.750000 16.980628 18.386614
4.800000 16.607247 18.024796
4.850000 16.274581 17.669829
4.900000 15.981657 17.321579
4.950000 15.726727 16.979911
5.000000 15.507311 16.644697
5.050000 15.320261 16.315809
5.100000 15.161839 15.993121
5.150000 15.027810 15.676511
5.200000 14.913539 15.365861
5.250000 14.814108 15.061053
5.300000 14.724431 14.761972
5.350000 14.639372 14.468506
5.400000 14.553866 14.180545
5.450000 14.463038 13.897982
5.500000 14.362315 13.620711
5.550000 14.247524 13.348628
5.600000 14.114993 13.081634
5.650000 13.961628 12.819628
5.700000 13.784976 12.562513
5.750000 13.583282 12.310196
5.800000 13.355516 12.062582
5.850000 13.101393 11.819581
5.900000 12.821367 11.581103
5.950000 12.516615 11.347061
6.000000 12.189000 11.117369
6.050000 11.841015 10.891944
6.100000 11.475718 10.670703
6.150000 11.096655 10.453565
6.200000 10.707765 10.240451
6.250000 10.313280 10.031285
6.300000 9.917624 9.825991
6.350000 9.525303 9.624494
6.400000 9.140792 9.426721
6.450000 8.768431 9.232602
6.500000 8.412316 9.042066
6.550000 8.076210 8.855044
6.600000 7.763446 8.671471
6.650000 7.476855 8.491280
6.700000 7.218701 8.314407
6.750000 6.990630 8.140788
6.800000 6.793634 7.970362
6.850000 6.628034 7.803069
6.900000 6.493475 7.638847
6.950000 6.388938 7.477640
7.000000 6.312775 7.319391
7.050000 6.262743 7.164042
7.100000 6.236071 7.011540
7.150000 6.229523 6.861831
7.200000 6.239480 6.714862
7.250000 6.262029 6.570580
7.300000 6.293057 6.428936
7.350000 6.328349 6.289880
7.400000 6.363689 6.153364
7.450000 6.394960 6.019338
7.500000 6.418237 5.887757
7.550000 6.429880 5.758575
7.600000 6.426619 5.631746
7.650000 6.405621 5.507227
7.700000 6.364559 5.384974
7.750000 6.301660 5.264945
7.800000 6.215737 5.147098
7.850000 6.106218 5.031393
7.900000 5.973148 4.917789
7.950000 5.817183 4.806247
8.000000 5.639567 4.696729
8.050000 5.442099 4.589197
8.100000 5.227081 4.483615
8.150000 4.997258 4.379945
8.200000 4.755751 4.278152
8.250000 4.505974 4.178201
8.300000 4.251553 4.080059
8.350000 3.996233 3.983691
8.400000 3.743792 3.889064
8.450000 3.497945 3.796148
8.500000 3.262259 3.704908
8.550000 3.040066 3.615316
8.600000 2.834385 3.527339
8.650000 2.647857 3.440949
8.700000 2.482678 3.356115
8.750000 2.340553 3.272810
8.800000 2.222660 3.191005
8.850000 2.129628 3.110672
8.900000 2.061518 3.031785
8.950000 2.017836 2.954316
9.000000 1.997544 2.878239
9.050000 1.999088 2.803530
9.100000 2.020443 2.730162
9.150000 2.059161 2.658111
9.200000 2.112436 2.587353
9.250000 2.177170 2.517864
9.300000 2.250050 2.449621
9.350000 2.327632 2.382601
9.400000 2.406418 2.316782
9.450000 2.482941 2.252141
9.500000 2.553850 2.188658
9.550000 2.615985 2.126310
9.600000 2.666448 2.065077
9.650000 2.702676 2.004939
9.700000 2.722492 1.945876
9.750000 2.724156 1.887868
9.800000 2.706400 1.830896
9.850000 2.668458 1.774941
9.900000 2.610072 1.719984
9.950000 2.531500 1.666008
10.000000 2.433501 1.612994
10.050000 2.317314 1.560925
10.100000 2.184619 1.509784
10.150000 2.037502 1.459553
10.200000 1.878389 1.410217
10.250000 1.709997 1.361759
10.300000 1.535257 1.314163
10.350000 1.357247 1.267414
10.400000 1.179114 1.221495
10.450000 1.004000 1.176393
10.500000 0.834968 1.132092
10.550000 0.674925 1.088578
10.600000 0.526557 1.045836
10.650000 0.392269 1.003853
10.700000 0.274124 0.962615
10.750000 0.173802 0.922108
10.800000 0.092559 0.882320
10.850000 0.031203 0.843236
10.900000 -0.009921 0.804846
10.950000 -0.030936 0.767135
11.000000 -0.032429 0.730091
11.050000 -0.015428 0.693704
11.100000 0.018623 0.657960
11.150000 0.067901 0.622849
11.200000 0.130254 0.588358
11.250000 0.203252 0.554477
11.300000 0.284247 0.521195
11.350000 0.370441 0.488501
11.400000 0.458951 0.456385
11.450000 0.546877 0.424835
11.500000 0.631374 0.393842
11.550000 0.709718 0.363396
11.600000 0.779369 0.333487
11.650000 0.838030 0.304106
11.700000 0.883698 0.275242
11.750000 0.914712 0.246888
11.800000 0.929785 0.219032
11.850000 0.928034 0.191668
11.900000 0.908997 0.164785
11.950000 0.872640 0.138376
12.000000 0.819350 0.112431
12.050000 0.749929 0.086942
12.100000 0.665564 0.061902
12.150000 0.567800 0.037303
12.200000 0.458494 0.013135
12.250000 0.339776 -0.010608
12.300000 0.213989 -0.033933
12.350000 0.083633 -0.056849
12.400000 -0.048697 -0.079363
12.450000 -0.180369 -0.101481
12.500000 -0.308785 -0.123211
12.550000 -0.431437 -0.144560
12.600000 -0.545968 -0.165535
12.650000 -0.650226 -0.186141
12.700000 -0.742315 -0.206387
12.750000 -0.820637 -0.226278
12.800000 -0.883929 -0.245820
12.850000 -0.931287 -0.265020
12.900000 -0.962187 -0.283883
12.950000 -0.976494 -0.302417
13.000000 -0.974463 -0.320626
13.050000 -0.956724 -0.338516
13.100000 -0.924272 -0.356094
13.150000 -0.878433 -0.373364
13.200000 -0.820834 -0.390332
13.250000 -0.753360 -0.407003
13.300000 -0.678106 -0.423383
13.350000 -0.597327 -0.439477
13.400000 -0.513382 -0.455290
13.450000 -0.428680 -0.470827
13.500000 -0.345615 -0.486092
13.550000 -0.266517 -0.501091
13.600000 -0.193593 -0.515828
13.650000 -0.128878 -0.530308
13.700000 -0.074186 -0.544536
13.750000 -0.031069 -0.558515
13.800000 -0.000786 -0.572251
13.850000 0.015731 -0.585747
13.900000 0.017887 -0.599008
13.950000 0.005444 -0.612038
14.000000 -0.021483 -0.624841
14.050000 -0.062428 -0.637421
14.100000 -0.116592 -0.649782
14.150000 -0.182860 -0.661928
14.200000 -0.259837 -0.673863
14.250000 -0.345879 -0.685590
14.300000 -0.439136 -0.697113
14.350000 -0.537598 -0.708435
14.400000 -0.639144 -0.719561
14.450000 -0.741596 -0.730493
14.500000 -0.842766 -0.741235
14.550000 -0.940516 -0.751791
14.600000 -1.032800 -0.762163
14.650000 -1.117718 -0.772355
14.700000 -1.193561 -0.782370
14.750000 -1.258842 -0.792212
14.800000 -1.312339 -0.801882
14.850000 -1.353116 -0.811385
14.900000 -1.380544 -0.820722
14.950000 -1.394315 -0.829898
15.000000 -1.394444 -0.838915
15.050000 -1.381267 -0.847775
15.100000 -1.355431 -0.856482
15.150000 -1.317873 -0.865038
15.200000 -1.269799 -0.873445
15.250000 -1.212651 -0.881707
15.300000 -1.148069 -0.889826
15.350000 -1.077852 -0.897804
15.400000 -1.003917 -0.905644
15.450000 -0.928243 -0.913348
15.500000 -0.852835 -0.920919
15.550000 -0.779666 -0.928359
15.600000 -0.710638 -0.935670
15.650000 -0.647532 -0.942855
15.700000 -0.591970 -0.949915
15.750000 -0.545375 -0.956854
15.800000 -0.508944 -0.963672
15.850000 -0.483614 -0.970373
15.900000 -0.470050 -0.976958
15.950000 -0.468626 -0.983429
16.000000 -0.479422 -0.989788
16.050000 -0.502222 -0.996037
16.100000 -0.536524 -1.002179
16.150000 -0.581556 -1.008214
16.200000 -0.636292 -1.014145
16.250000 -0.699483 -1.019974
16.300000 -0.769688 -1.025702
16.350000 -0.845309 -1.031332
16.400000 -0.924631 -1.036864
16.450000 -1.005864 -1.042301
16.500000 -1.087186 -1.047644
16.550000 -1.166788 -1.052895
16.600000 -1.242916 -1.058056
16.650000 -1.313911 -1.063128
16.700000 -1.378251 -1.068112
16.750000 -1.434584 -1.073010
16.800000 -1.481756 -1.077824
16.850000 -1.518844 -1.082555
16.900000 -1.545168 -1.087205
16.950000 -1.560309 -1.091774
17.000000 -1.564119 -1.096265
17.050000 -1.556715 -1.100679
17.100000 -1.538482 -1.105016
17.150000 -1.510055 -1.109279
17.200000 -1.472306 -1.113469
17.250000 -1.426318 -1.117586
17.300000 -1.373359 -1.121633
17.350000 -1.314850 -1.125610
17.400000 -1.252331 -1.129519
17.450000 -1.187420 -1.133361
17.500000 -1.121776 -1.137137
17.550000 -1.057061 -1.140847
17.600000 -0.994895 -1.144494
17.650000 -0.936823 -1.148079
17.700000 -0.884278 -1.151601
17.750000 -0.838545 -1.155064
17.800000 -0.800734 -1.158467
17.850000 -0.771757 -1.161811
17.900000 -0.752303 -1.165098
17.950000 -0.742829 -1.168329
18.000000 -0.743548 -1.171504
18.050000 -0.754425 -1.174625
18.100000 -0.775187 -1.177692
18.150000 -0.805321 -1.180706
18.200000 -0.844098 -1.183669
18.250000 -0.890588 -1.186581
18.300000 -0.943684 -1.189443
18.350000 -1.002129 -1.192256
18.400000 -1.064552 -1.195021
18.450000 -1.129495 -1.197739
18.500000 -1.195456 -1.200410
18.550000 -1.260916 -1.203035
18.600000 -1.324386 -1.205615
18.650000 -1.384434 -1.208151
18.700000 -1.439720 -1.210644
18.750000 -1.489031 -1.213094
18.800000 -1.531306 -1.215502
18.850000 -1.565659 -1.217869
18.900000 -1.591399 -1.220195
18.950000 -1.608049 -1.222481
19.000000 -1.615347 -1.224729
19.050000 -1.613259 -1.226938
19.100000 -1.601971 -1.229109
19.150000 -1.581889 -1.231243
19.200000 -1.553620 -1.233340
19.250000 -1.517962 -1.235402
19.300000 -1.475880 -1.237428
19.350000 -1.428483 -1.239420
19.400000 -1.376996 -1.241378
19.450000 -1.322729 -1.243302
19.500000 -1.267044 -1.245194
19.550000 -1.211327 -1.247053
19.600000 -1.156949 -1.248880
19.650000 -1.105237 -1.250676
19.700000 -1.057441 -1.252442
19.750000 -1.014706 -1.254177
19.800000 -0.978046 -1.255883
19.850000 -0.948321 -1.257560
19.900000 -0.926215 -1.259207
19.950000 -0.912225 -1.260827
20.000000 -0.906651 -1.262420
20.050000 -0.909586 -1.263985
20.100000 -0.920923 -1.265523
20.150000 -0.940351 -1.267035
20.200000 -0.967372 -1.268521
20.250000 -1.001309 -1.269982
20.300000 -1.041326 -1.271419
20.350000 -1.086449 -1.272830
20.400000 -1.135592 -1.274218
20.450000 -1.187582 -1.275582
20.500000 -1.241187 -1.276922
20.550000 -1.295148 -1.278240
20.600000 -1.348208 -1.279536
20.650000 -1.399144 -1.280809
20.700000 -1.446791 -1.282060
20.750000 -1.490074 -1.283291
20.800000 -1.528033 -1.284500
20.850000 -1.559839 -1.285689
20.900000 -1.584820 -1.286857
20.950000 -1.602469 -1.288006
21.000000 -1.612462 -1.289135
21.050000 -1.614655 -1.290245
21.100000 -1.609093 -1.291336
21.150000 -1.596006 -1.292408
21.200000 -1.575799 -1.293463
21.250000 -1.549041 -1.294499
21.300000 -1.516455 -1.295517
21.350000 -1.478894 -1.296519
21.400000 -1.437321 -1.297503
21.450000 -1.392786 -1.298471
21.500000 -1.346399 -1.299422
21.550000 -1.299305 -1.300357
21.600000 -1.252653 -1.301276
21.650000 -1.207574 -1.302179
21.700000 -1.165148 -1.303067
21.750000 -1.126382 -1.303940
21.800000 -1.092188 -1.304798
21.850000 -1.063359 -1.305642
21.900000 -1.040554 -1.306471
21.950000 -1.024281 -1.307286
22.000000 -1.014888 -1.308088
22.050000 -1.012556 -1.308875
22.100000 -1.017296 -1.309650
22.150000 -1.028949 -1.310411
22.200000 -1.047194 -1.311159
22.250000 -1.071554 -1.311895
22.300000 -1.101412 -1.312618
22.350000 -1.136025 -1.313329
22.400000 -1.174541 -1.314027
22.450000 -1.216027 -1.314714
22.500000 -1.259482 -1.315390
22.550000 -1.303871 -1.316053
22.600000 -1.348144 -1.316706
22.650000 -1.391263 -1.317347
22.700000 -1.432227 -1.317978
22.750000 -1.470095 -1.318598
22.800000 -1.504009 -1.319207
22.850000 -1.533211 -1.319806
22.900000 -1.557062 -1.320395
22.950000 -1.575056 -1.320974
23.000000 -1.586833 -1.321544
23.050000 -1.592181 -1.322103
23.100000 -1.591044 -1.322653
23.150000 -1.583522 -1.323194
23.200000 -1.569863 -1.323725
23.250000 -1.550462 -1.324248
23.300000 -1.525845 -1.324762
23.350000 -1.496658 -1.325267
23.400000 -1.463648 -1.325763
23.450000 -1.427649 -1.326251
23.500000 -1.389556 -1.326731
23.550000 -1.350308 -1.327202
23.600000 -1.310860 -1.327666
23.650000 -1.272165 -1.328122
23.700000 -1.235148 -1.328570
23.750000 -1.200687 -1.329011
23.800000 -1.169590 -1.329444
23.850000 -1.142577 -1.329869
23.900000 -1.120265 -1.330288
23.950000 -1.103153 -1.330700
24.000000 -1.091611 -1.331104
24.050000 -1.085874 -1.331502
24.100000 -1.086035 -1.331893
24.150000 -1.092046 -1.332277
24.200000 -1.103722 -1.332655
24.250000 -1.120740 -1.333026
24.300000 -1.142658 -1.333392
24.350000 -1.168917 -1.333751
24.400000 -1.198862 -1.334103
24.450000 -1.231754 -1.334450
24.500000 -1.266792 -1.334792
24.550000 -1.303131 -1.335127
24.600000 -1.339900 -1.335457
24.650000 -1.376229 -1.335781
24.700000 -1.411264 -1.336099
24.750000 -1.444190 -1.336413
24.800000 -1.474250 -1.336721
24.850000 -1.500760 -1.337023
24.900000 -1.523129 -1.337321
24.950000 -1.540869 -1.337614
25.000000 -1.553606 -1.337901
25.050000 -1.561089 -1.338184
25.100000 -1.563193 -1.338462
25.150000 -1.559924 -1.338736
25.200000 -1.551416 -1.339005
25.250000 -1.537923 -1.339269
25.300000 -1.519819 -1.339529
25.350000 -1.497583 -1.339784
25.400000 -1.471788 -1.340035
25.450000 -1.443086 -1.340282
25.500000 -1.412194 -1.340525
25.550000 -1.379871 -1.340763
25.600000 -1.346908 -1.340998
25.650000 -1.314099 -1.341228
25.700000 -1.282231 -1.341455
25.750000 -1.252060 -1.341678
25.800000 -1.224293 -1.341897
25.850000 -1.199577 -1.342113
25.900000 -1.178476 -1.342324
25.950000 -1.161466 -1.342533
26.000000 -1.148921 -1.342737
26.050000 -1.141102 -1.342939
26.100000 -1.138160 -1.343137
26.150000 -1.140124 -1.343331
26.200000 -1.146908 -1.343523
26.250000 -1.158312 -1.343711
26.300000 -1.174026 -1.343896
26.350000 -1.193643 -1.344077
26.400000 -1.216663 -1.344256
26.450000 -1.242513 -1.344432
26.500000 -1.270555 -1.344605
26.550000 -1.300106 -1.344774
26.600000 -1.330452 -1.344941
26.650000 -1.360868 -1.345106
26.700000 -1.390633 -1.345267
26.750000 -1.419048 -1.345426
26.800000 -1.445451 -1.345582
26.850000 -1.469236 -1.345735
26.900000 -1.489864 -1.345886
26.950000 -1.506875 -1.346034
27.000000 -1.519902 -1.346180
27.050000 -1.528672 -1.346323
27.100000 -1.533020 -1.346464
27.150000 -1.532884 -1.346603
27.200000 -1.528313 -1.346739
27.250000 -1.519457 -1.346873
27.300000 -1.506570 -1.347005
27.350000 -1.489999 -1.347134
27.400000 -1.470174 -1.347261
27.450000 -1.447600 -1.347387
27.500000 -1.422842 -1.347510
27.550000 -1.396513 -1.347631
27.600000 -1.369257 -1.347750
27.650000 -1.341733 -1.347867
27.700000 -1.314604 -1.347982
27.750000 -1.288513 -1.348095
27.800000 -1.264076 -1.348206
27.850000 -1.241863 -1.348315
27.900000 -1.222384 -1.348423
27.950000 -1.206082 -1.348528
28.000000 -1.193319 -1.348632
28.050000 -1.184369 -1.348734
28.100000 -1.179414 -1.348835
28.150000 -1.178537 -1.348933
28.200000 -1.181725 -1.349030
28.250000 -1.188868 -1.349126
28.300000 -1.199762 -1.349220
28.350000 -1.214117 -1.349312
28.400000 -1.231560 -1.349403
28.450000 -1.251652 -1.349492
28.500000 -1.273892 -1.349579
28.550000 -1.297733 -1.349666
28.600000 -1.322594 -1.349750
28.650000 -1.347877 -1.349834
28.700000 -1.372978 -1.349916
28.750000 -1.397302 -1.349996
28.800000 -1.420279 -1.350076
28.850000 -1.441376 -1.350153
28.900000 -1.460110 -1.350230
28.950000 -1.476057 -1.350305
29.000000 -1.488864 -1.350379
29.050000 -1.498258 -1.350452
29.100000 -1.504046 -1.350524
29.150000 -1.506125 -1.350594
29.200000 -1.504481 -1.350663
29.250000 -1.499188 -1.350731
29.300000 -1.490407 -1.350798
29.350000 -1.478379 -1.350864
29.400000 -1.463424 -1.350929
29.450000 -1.445924 -1.350992
29.500000 -1.426320 -1.351055
29.550000 -1.405101 -1.351116
29.600000 -1.382787 -1.351177
29.650000 -1.359922 -1.351236
29.700000 -1.337056 -1.351295
29.750000 -1.314735 -1.351352
29.800000 -1.293487 -1.351409
29.850000 -1.273810 -1.351464
29.900000 -1.256159 -1.351519
29.950000 -1.240939 -1.351572
30.000000 -1.228490 -1.351625
30.050000 -1.219086 -1.351677
30.100000 -1.212924 -1.351728
30.150000 -1.210123 -1.351778
30.200000 -1.210720 -1.351828
30.250000 -1.214672 -1.351876
30.300000 -1.221855 -1.351924
30.350000 -1.232071 -1.351971
30.400000 -1.245049 -1.352017
30.450000 -1.260458 -1.352062
30.500000 -1.277908 -1.352107
30.550000 -1.296967 -1.352151
30.600000 -1.317168 -1.352194
30.650000 -1.338021 -1.352236
30.700000 -1.359023 -1.352278
30.750000 -1.379675 -1.352319
30.800000 -1.399488 -1.352359
30.850000 -1.418000 -1.352399
30.900000 -1.434782 -1.352438
30.950000 -1.449451 -1.352476
31.000000 -1.461678 -1.352514
31.050000 -1.471194 -1.352551
31.100000 -1.477799 -1.352587
31.150000 -1.481362 -1.352623
31.200000 -1.481826 -1.352658
31.250000 -1.479210 -1.352693
31.300000 -1.473605 -1.352727
31.350000 -1.465171 -1.352760
31.400000 -1.454136 -1.352793
31.450000 -1.440787 -1.352826
31.500000 -1.425463 -1.352858
31.550000 -1.408548 -1.352889
31.600000 -1.390461 -1.352920
31.650000 -1.371643 -1.352950
31.700000 -1.352549 -1.352980
31.750000 -1.333637 -1.353009
31.800000 -1.315358 -1.353038
31.850000 -1.298141 -1.353066
31.900000 -1.282387 -1.353094
31.950000 -1.268459 -1.353121
32.000000 -1.256673 -1.353148
32.050000 -1.247290 -1.353174
32.100000 -1.240514 -1.353200
32.150000 -1.236482 -1.353226
32.200000 -1.235267 -1.353251
32.250000 -1.236873 -1.353276
32.300000 -1.241235 -1.353300
32.350000 -1.248227 -1.353324
32.400000 -1.257659 -1.353348
32.450000 -1.269284 -1.353371
32.500000 -1.282806 -1.353393
32.550000 -1.297887 -1.353416
32.600000 -1.314154 -1.353438
32.650000 -1.331210 -1.353459
32.700000 -1.348641 -1.353480
32.750000 -1.366030 -1.353501
32.800000 -1.382963 -1.353522
32.850000 -1.399042 -1.353542
32.900000 -1.413892 -1.353562
32.950000 -1.427171 -1.353581
33.000000 -1.438577 -1.353601
33.050000 -1.447857 -1.353620
33.100000 -1.454808 -1.353638
33.150000 -1.459287 -1.353656
33.200000 -1.461210 -1.353674
33.250000 -1.460555 -1.353692
33.300000 -1.457360 -1.353709
33.350000 -1.451726 -1.353726
33.400000 -1.443808 -1.353743
33.450000 -1.433817 -1.353760
33.500000 -1.422010 -1.353776
33.550000 -1.408684 -1.353792
33.600000 -1.394171 -1.353808
33.650000 -1.378828 -1.353823
33.700000 -1.363028 -1.353838
33.750000 -1.347151 -1.353853
33.800000 -1.331578 -1.353868
33.850000 -1.316676 -1.353882
33.900000 -1.302794 -1.353896
33.950000 -1.290255 -1.353910
34.000000 -1.279344 -1.353924
34.050000 -1.270308 -1.353937
34.100000 -1.263346 -1.353951
34.150000 -1.258604 -1.353964
34.200000 -1.256175 -1.353977
34.250000 -1.256098 -1.353989
34.300000 -1.258352 -1.354002
34.350000 -1.262864 -1.354014
34.400000 -1.269506 -1.354026
34.450000 -1.278100 -1.354038
34.500000 -1.288425 -1.354049
34.550000 -1.300220 -1.354061
34.600000 -1.313190 -1.354072
34.650000 -1.327017 -1.354083
34.700000 -1.341363 -1.354094
34.750000 -1.355883 -1.354104
34.800000 -1.370229 -1.354115
34.850000 -1.384062 -1.354125
34.900000 -1.397056 -1.354135
34.950000 -1.408912 -1.354145
35.000000 -1.419355 -1.354155
35.050000 -1.428152 -1.354165
35.100000 -1.435107 -1.354174
35.150000 -1.440072 -1.354183
35.200000 -1.442946 -1.354193
35.250000 -1.443681 -1.354202
35.300000 -1.442278 -1.354210
35.350000 -1.438791 -1.354219
35.400000 -1.433321 -1.354228
35.450000 -1.426016 -1.354236
35.500000 -1.417068 -1.354244
35.550000 -1.406705 -1.354253
35.600000 -1.395186 -1.354261
35.650000 -1.382797 -1.354268
35.700000 -1.369839 -1.354276
35.750000 -1.356629 -1.354284
35.800000 -1.343481 -1.354291
35.850000 -1.330710 -1.354299
35.900000 -1.318616 -1.354306
35.950000 -1.307481 -1.354313
36.000000 -1.297561 -1.354320
36.050000 -1.289083 -1.354327
36.100000 -1.282236 -1.354334
36.150000 -1.277167 -1.354340
36.200000 -1.273981 -1.354347
36.250000 -1.272739 -1.354353
36.300000 -1.273451 -1.354360
36.350000 -1.276083 -1.354366
36.400000 -1.280556 -1.354372
36.450000 -1.286746 -1.354378
36.500000 -1.294491 -1.354384
36.550000 -1.303593 -1.354390
36.600000 -1.313822 -1.354396
36.650000 -1.324924 -1.354401
36.700000 -1.336629 -1.354407
36.750000 -1.348651 -1.354412
36.800000 -1.360701 -1.354418
36.850000 -1.372493 -1.354423
36.900000 -1.383748 -1.354428
36.950000 -1.394204 -1.354433
37.000000 -1.403617 -1.354438
37.050000 -1.411775 -1.354443
37.100000 -1.418493 -1.354448
37.150000 -1.423625 -1.354453
37.200000 -1.427064 -1.354457
37.250000 -1.428742 -1.354462
37.300000 -1.428637 -1.354466
37.350000 -1.426765 -1.354471
37.400000 -1.423189 -1.354475
37.450000 -1.418009 -1.354480
37.500000 -1.411363 -1.354484
37.550000 -1.403422 -1.354488
37.600000 -1.394388 -1.354492
37.650000 -1.384484 -1.354496
37.700000 -1.373957 -1.354500
37.750000 -1.363060 -1.354504
37.800000 -1.352059 -1.354508
37.850000 -1.341215 -1.354512
37.900000 -1.330786 -1.354515
37.950000 -1.321016 -1.354519
38.000000 -1.312132 -1.354522
38.050000 -1.304337 -1.354526
38.100000 -1.297809 -1.354529
38.150000 -1.292690 -1.354533
38.200000 -1.289090 -1.354536
38.250000 -1.287081 -1.354539
38.300000 -1.286697 -1.354543
38.350000 -1.287932 -1.354546
38.400000 -1.290742 -1.354549
38.450000 -1.295047 -1.354552
38.500000 -1.300729 -1.354555
38.550000 -1.307642 -1.354558
38.600000 -1.315610 -1.354561
38.650000 -1.324434 -1.354564
38.700000 -1.333895 -1.354567
38.750000 -1.343763 -1.354570
38.800000 -1.353799 -1.354572
38.850000 -1.363764 -1.354575
38.900000 -1.373419 -1.354578
38.950000 -1.382538 -1.354580
39.000000 -1.390909 -1.354583
39.050000 -1.398340 -1.354585
39.100000 -1.404661 -1.354588
39.150000 -1.409733 -1.354590
39.200000 -1.413445 -1.354593
39.250000 -1.415723 -1.354595
39.300000 -1.416524 -1.354597
39.350000 -1.415843 -1.354600
39.400000 -1.413710 -1.354602
39.450000 -1.410189 -1.354604
39.500000 -1.405375 -1.354606
39.550000 -1.399396 -1.354608
39.600000 -1.392404 -1.354610
39.650000 -1.384575 -1.354613
39.700000 -1.376104 -1.354615
39.750000 -1.367197 -1.354617
39.800000 -1.358071 -1.354618
39.850000 -1.348945 -1.354620
39.900000 -1.340037 -1.354622
39.950000 -1.331557 -1.354624
40.000000 -1.323702 -1.354626
40.050000 -1.316655 -1.354628
40.100000 -1.310576 -1.354630
40.150000 -1.305601 -1.354631
40.200000 -1.301838 -1.354633
40.250000 -1.299367 -1.354635
40.300000 -1.298234 -1.354636
40.350000 -1.298454 -1.354638
40.400000 -1.300011 -1.354640
40.450000 -1.302855 -1.354641
40.500000 -1.306906 -1.354643
40.550000 -1.312057 -1.354644
40.600000 -1.318176 -1.354646
40.650000 -1.325108 -1.354647
40.700000 -1.332681 -1.354649
40.750000 -1.340709 -1.354650
40.800000 -1.348997 -1.354652
40.850000 -1.357344 -1.354653
40.900000 -1.365551 -1.354654
40.950000 -1.373425 -1.354656
41.000000 -1.380781 -1.354657
41.050000 -1.387449 -1.354658
41.100000 -1.393275 -1.354659
41.150000 -1.398129 -1.354661
41.200000 -1.401904 -1.354662
41.250000 -1.404519 -1.354663
41.300000 -1.405924 -1.354664
41.350000 -1.406095 -1.354666
41.400000 -1.405040 -1.354667
41.450000 -1.402795 -1.354668
41.500000 -1.399424 -1.354669
41.550000 -1.395018 -1.354670
41.600000 -1.389690 -1.354671
41.650000 -1.383577 -1.354672
41.700000 -1.376831 -1.354673
41.750000 -1.369617 -1.354674
41.800000 -1.362113 -1.354675
41.850000 -1.354500 -1.354676
41.900000 -1.346959 -1.354677
41.950000 -1.339671 -1.354678
42.000000 -1.332806 -1.354679
42.050000 -1.326523 -1.354680
42.100000 -1.320968 -1.354681
42.150000 -1.316266 -1.354682
42.200000 -1.312521 -1.354683
42.250000 -1.309814 -1.354684
42.300000 -1.308201 -1.354684
42.350000 -1.307708 -1.354685
42.400000 -1.308339 -1.354686
42.450000 -1.310068 -1.354687
42.500000 -1.312844 -1.354688
42.550000 -1.316591 -1.354688
42.600000 -1.321212 -1.354689
42.650000 -1.326588 -1.354690
42.700000 -1.332585 -1.354691
42.750000 -1.339054 -1.354691
42.800000 -1.345837 -1.354692
42.850000 -1.352770 -1.354693
42.900000 -1.359686 -1.354694
42.950000 -1.366421 -1.354694
43.000000 -1.372815 -1.354695
43.050000 -1.378720 -1.354696
43.100000 -1.384000 -1.354696
43.150000 -1.388534 -1.354697
43.200000 -1.392222 -1.354698
43.250000 -1.394982 -1.354698
43.300000 -1.396758 -1.354699
43.350000 -1.397517 -1.354699
43.400000 -1.397248 -1.354700
43.450000 -1.395970 -1.354701
43.500000 -1.393719 -1.354701
43.550000 -1.390560 -1.354702
43.600000 -1.386576 -1.354702
43.650000 -1.381868 -1.354703
43.700000 -1.376556 -1.354703
43.750000 -1.370771 -1.354704
43.800000 -1.364657 -1.354704
43.850000 -1.358360 -1.354705
43.900000 -1.352033 -1.354705
43.950000 -1.345827 -1.354706
44.000000 -1.339888 -1.354706
44.050000 -1.334356 -1.354707
44.100000 -1.329359 -1.354707
44.150000 -1.325010 -1.354708
44.200000 -1.321408 -1.354708
44.250000 -1.318631 -1.354709
44.300000 -1.316739 -1.354709
44.350000 -1.315768 -1.354709
44.400000 -1.315733 -1.354710
44.450000 -1.316627 -1.354710
44.500000 -1.318419 -1.354711
44.550000 -1.321060 -1.354711
44.600000 -1.324478 -1.354711
44.650000 -1.328586 -1.354712
44.700000 -1.333278 -1.354712
44.750000 -1.338438 -1.354713
44.800000 -1.343940 -1.354713
44.850000 -1.349648 -1.354713
44.900000 -1.355425 -1.354714
44.950000 -1.361134 -1.354714
45.000000 -1.366637 -1.354714
45.050000 -1.371808 -1.354715
45.100000 -1.376524 -1.354715
45.150000 -1.380678 -1.354715
45.200000 -1.384177 -1.354716
45.250000 -1.386942 -1.354716
45.300000 -1.388915 -1.354716
45.350000 -1.390056 -1.354717
45.400000 -1.390345 -1.354717
45.450000 -1.389782 -1.354717
45.500000 -1.388390 -1.354718
45.550000 -1.386208 -1.354718
45.600000 -1.383296 -1.354718
45.650000 -1.379730 -1.354718
45.700000 -1.375601 -1.354719
45.750000 -1.371011 -1.354719
45.800000 -1.366075 -1.354719
45.850000 -1.360913 -1.354719
45.900000 -1.355650 -1.354720
45.950000 -1.350413 -1.354720
46.000000 -1.345325 -1.354720
46.050000 -1.340507 -1.354720
46.100000 -1.336071 -1.354721
46.150000 -1.332119 -1.354721
46.200000 -1.328742 -1.354721
46.250000 -1.326013 -1.354721
46.300000 -1.323993 -1.354722
46.350000 -1.322723 -1.354722
46.400000 -1.322226 -1.354722
46.450000 -1.322508 -1.354722
46.500000 -1.323554 -1.354723
46.550000 -1.325333 -1.354723
46.600000 -1.327796 -1.354723
46.650000 -1.330878 -1.354723
46.700000 -1.334500 -1.354723
46.750000 -1.338571 -1.354724
46.800000 -1.342990 -1.354724
46.850000 -1.347648 -1.354724
46.900000 -1.352433 -1.354724
46.950000 -1.357229 -1.354724
47.000000 -1.361922 -1.354724
47.050000 -1.366402 -1.354725
47.100000 -1.370563 -1.354725
47.150000 -1.374309 -1.354725
47.200000 -1.377554 -1.354725
47.250000 -1.380227 -1.354725
47.300000 -1.382269 -1.354725
47.350000 -1.383636 -1.354726
47.400000 -1.384302 -1.354726
47.450000 -1.384258 -1.354726
47.500000 -1.383511 -1.354726
47.550000 -1.382085 -1.354726
47.600000 -1.380020 -1.354726
47.650000 -1.377372 -1.354726
47.700000 -1.374208 -1.354727
47.750000 -1.370609 -1.354727
47.800000 -1.366665 -1.354727
47.850000 -1.362471 -1.354727
47.900000 -1.358131 -1.354727
47.950000 -1.353749 -1.354727
48.000000 -1.349431 -1.354727
48.050000 -1.345277 -1.354728
48.100000 -1.341385 -1.354728
48.150000 -1.337847 -1.354728
48.200000 -1.334743 -1.354728
48.250000 -1.332142 -1.354728
48.300000 -1.330103 -1.354728
48.350000 -1.328669 -1.354728
48.400000 -1.327869 -1.354728
48.450000 -1.327715 -1.354728
48.500000 -1.328206 -1.354729
48.550000 -1.329324 -1.354729
48.600000 -1.331037 -1.354729
48.650000 -1.333299 -1.354729
48.700000 -1.336051 -1.354729
48.750000 -1.339222 -1.354729
48.800000 -1.342735 -1.354729
48.850000 -1.346501 -1.354729
48.900000 -1.350429 -1.354729
48.950000 -1.354424 -1.354729
49.000000 -1.358391 -1.354730
49.050000 -1.362234 -1.354730
49.100000 -1.365864 -1.354730
49.150000 -1.369196 -1.354730
49.200000 -1.372153 -1.354730
49.250000 -1.374669 -1.354730
49.300000 -1.376687 -1.354730
49.350000 -1.378164 -1.354730
49.400000 -1.379070 -1.354730
49.450000 -1.379387 -1.354730
49.500000 -1.379115 -1.354730
49.550000 -1.378265 -1.354730
49.600000 -1.376861 -1.354731
49.650000 -1.374944 -1.354731
49.700000 -1.372562 -1.354731
49.750000 -1.369777 -1.354731
49.800000 -1.366659 -1.354731
49.850000 -1.363285 -1.354731
49.900000 -1.359738 -1.354731
49.950000 -1.356103 -1.354731
50.000000 -1.352469 -1.354731
50.050000 -1.348922 -1.354731
50.100000 -1.345544 -1.354731
50.150000 -1.342417 -1.354731
50.200000 -1.339610 -1.354731
50.250000 -1.337189 -1.354731
50.300000 -1.335208 -1.354731
50.350000 -1.333710 -1.354732
50.400000 -1.332725 -1.354732
50.450000 -1.332274 -1.354732
50.500000 -1.332362 -1.354732
50.550000 -1.332981 -1.354732
50.600000 -1.334113 -1.354732
50.650000 -1.335726 -1.354732
50.700000 -1.337777 -1.354732
50.750000 -1.340213 -1.354732
50.800000 -1.342972 -1.354732
50.850000 -1.345987 -1.354732
50.900000 -1.349183 -1.354732
50.950000 -1.352483 -1.354732
51.000000 -1.355806 -1.354732
51.050000 -1.359073 -1.354732
51.100000 -1.362208 -1.354732
51.150000 -1.365136 -1.354732
51.200000 -1.367790 -1.354732
51.250000 -1.370109 -1.354732
51.300000 -1.372041 -1.354732
51.350000 -1.373543 -1.354733
51.400000 -1.374584 -1.354733
51.450000 -1.375143 -1.354733
51.500000 -1.375210 -1.354733
51.550000 -1.374789 -1.354733
51.600000 -1.373895 -1.354733
51.650000 -1.372552 -1.354733
51.700000 -1.370797 -1.354733
51.750000 -1.368675 -1.354733
51.800000 -1.366240 -1.354733
51.850000 -1.363553 -1.354733
51.900000 -1.360681 -1.354733
51.950000 -1.357693 -1.354733
52.000000 -1.354661 -1.354733
52.050000 -1.351658 -1.354733
52.100000 -1.348756 -1.354733
52.150000 -1.346022 -1.354733
52.200000 -1.343521 -1.354733
52.250000 -1.341309 -1.354733
52.300000 -1.339436 -1.354733
52.350000 -1.337945 -1.354733
52.400000 -1.336867 -1.354733
52.450000 -1.336225 -1.354733
52.500000 -1.336029 -1.354733
52.550000 -1.336280 -1.354733
52.600000 -1.336968 -1.354733
52.650000 -1.338073 -1.354733
52.700000 -1.339565 -1.354733
52.750000 -1.341405 -1.354733
52.800000 -1.343546 -1.354733
52.850000 -1.345933 -1.354733
52.900000 -1.348509 -1.354734
52.950000 -1.351210 -1.354734
53.000000 -1.353970 -1.354734
53.050000 -1.356723 -1.354734
53.100000 -1.359404 -1.354734
53.150000 -1.361950 -1.354734
53.200000 -1.364301 -1.354734
53.250000 -1.366403 -1.354734
53.300000 -1.368208 -1.354734
53.350000 -1.369675 -1.354734
53.400000 -1.370774 -1.354734
53.450000 -1.371481 -1.354734
53.500000 -1.371782 -1.354734
53.550000 -1.371675 -1.354734
53.600000 -1.371165 -1.354734
53.650000 -1.370269 -1.354734
53.700000 -1.369011 -1.354734
53.750000 -1.367424 -1.354734
53.800000 -1.365549 -1.354734
53.850000 -1.363434 -1.354734
53.900000 -1.361130 -1.354734
53.950000 -1.358695 -1.354734
54.000000 -1.356188 -1.354734
54.050000 -1.353668 -1.354734
54.100000 -1.351197 -1.354734
54.150000 -1.348833 -1.354734
54.200000 -1.346630 -1.354734
54.250000 -1.344640 -1.354734
54.300000 -1.342909 -1.354734
54.350000 -1.341474 -1.354734
54.400000 -1.340369 -1.354734
54.450000 -1.339615 -1.354734
54.500000 -1.339229 -1.354734
54.550000 -1.339215 -1.354734
54.600000 -1.339571 -1.354734
54.650000 -1.340285 -1.354734
54.700000 -1.341336 -1.354734
54.750000 -1.342697 -1.354734
54.800000 -1.344333 -1.354734
54.850000 -1.346201 -1.354734
54.900000 -1.348256 -1.354734
54.950000 -1.350446 -1.354734
55.000000 -1.352719 -1.354734
55.050000 -1.355019 -1.354734
55.100000 -1.357292 -1.354734
55.150000 -1.359483 -1.354734
55.200000 -1.361541 -1.354734
55.250000 -1.363419 -1.354734
55.300000 -1.365073 -1.354734
55.350000 -1.366466 -1.354734
55.400000 -1.367566 -1.354734
55.450000 -1.368352 -1.354734
55.500000 -1.368805 -1.354734
55.550000 -1.368920 -1.354734
55.600000 -1.368696 -1.354734
55.650000 -1.368141 -1.354734
55.700000 -1.367272 -1.354734
55.750000 -1.366113 -1.354734
55.800000 -1.364692 -1.354734
55.850000 -1.363048 -1.354734
55.900000 -1.361220 -1.354734
55.950000 -1.359255 -1.354734
56.000000 -1.357199 -1.354734
56.050000 -1.355104 -1.354734
56.100000 -1.353018 -1.354734
56.150000 -1.350992 -1.354735
56.200000 -1.349074 -1.354735
56.250000 -1.347308 -1.354735
56.300000 -1.345734 -1.354735
56.350000 -1.344390 -1.354735
56.400000 -1.343303 -1.354735
56.450000 -1.342499 -1.354735
56.500000 -1.341993 -1.354735
56.550000 -1.341796 -1.354735
56.600000 -1.341908 -1.354735
56.650000 -1.342325 -1.354735
56.700000 -1.343033 -1.354735
56.750000 -1.344014 -1.354735
56.800000 -1.345241 -1.354735
56.850000 -1.346683 -1.354735
56.900000 -1.348304 -1.354735
56.950000 -1.350064 -1.354735
57.000000 -1.351919 -1.354735
57.050000 -1.353824 -1.354735
57.100000 -1.355733 -1.354735
57.150000 -1.357602 -1.354735
57.200000 -1.359385 -1.354735
57.250000 -1.361042 -1.354735
57.300000 -1.362533 -1.354735
57.350000 -1.363825 -1.354735
57.400000 -1.364889 -1.354735
57.450000 -1.365702 -1.354735
57.500000 -1.366246 -1.354735
57.550000 -1.366511 -1.354735
57.600000 -1.366493 -1.354735
57.650000 -1.366195 -1.354735
57.700000 -1.365627 -1.354735
57.750000 -1.364805 -1.354735
57.800000 -1.363751 -1.354735
57.850000 -1.362491 -1.354735
57.900000 -1.361058 -1.354735
57.950000 -1.359487 -1.354735
58.000000 -1.357817 -1.354735
58.050000 -1.356089 -1.354735
58.100000 -1.354344 -1.354735
58.150000 -1.352625 -1.354735
58.200000 -1.350971 -1.354735
58.250000 -1.349421 -1.354735
58.300000 -1.348013 -1.354735
58.350000 -1.346777 -1.354735
58.400000 -1.345741 -1.354735
58.450000 -1.344930 -1.354735
58.500000 -1.344359 -1.354735
58.550000 -1.344040 -1.354735
58.600000 -1.343979 -1.354735
58.650000 -1.344175 -1.354735
58.700000 -1.344620 -1.354735
58.750000 -1.345302 -1.354735
58.800000 -1.346203 -1.354735
58.850000 -1.347298 -1.354735
58.900000 -1.348561 -1.354735
58.950000 -1.349960 -1.354735
59.000000 -1.351460 -1.354735
59.050000 -1.353024 -1.354735
59.100000 -1.354614 -1.354735
59.150000 -1.356194 -1.354735
59.200000 -1.357724 -1.354735
59.250000 -1.359169 -1.354735
59.300000 -1.360495 -1.354735
59.350000 -1.361673 -1.354735
59.400000 -1.362674 -1.354735
59.450000 -1.363478 -1.354735
59.500000 -1.364066 -1.354735
59.550000 -1.364426 -1.354735
59.600000 -1.364552 -1.354735
59.650000 -1.364444 -1.354735
59.700000 -1.364105 -1.354735
59.750000 -1.363546 -1.354735
59.800000 -1.362782 -1.354735
59.850000 -1.361834 -1.354735
59.900000 -1.360725 -1.354735
59.950000 -1.359483 -1.354735
60.000000 -1.358140 -1.354735
60.050000 -1.356728 -1.354735
60.100000 -1.355280 -1.354735
60.150000 -1.353833 -1.354735
60.200000 -1.352421 -1.354735
60.250000 -1.351076 -1.354735
60.300000 -1.349831 -1.354735
60.350000 -1.348714 -1.354735
60.400000 -1.347750 -1.354735
60.450000 -1.346961 -1.354735
60.500000 -1.346364 -1.354735
60.550000 -1.345973 -1.354735
60.600000 -1.345793 -1.354735
60.650000 -1.345828 -1.354735
60.700000 -1.346075 -1.354735
60.750000 -1.346526 -1.354735
60.800000 -1.347168 -1.354735
60.850000 -1.347984 -1.354735
60.900000 -1.348954 -1.354735
60.950000 -1.350053 -1.354735
61.000000 -1.351254 -1.354735
61.050000 -1.352526 -1.354735
61.100000 -1.353840 -1.354735
61.150000 -1.355163 -1.354735
61.200000 -1.356464 -1.354735
61.250000 -1.357712 -1.354735
61.300000 -1.358878 -1.354735
61.350000 -1.359935 -1.354735
61.400000 -1.360858 -1.354735
61.450000 -1.361627 -1.354735
61.500000 -1.362225 -1.354735
61.550000 -1.362639 -1.354735
61.600000 -1.362862 -1.354735
61.650000 -1.362888 -1.354735
61.700000 -1.362721 -1.354735
61.750000 -1.362364 -1.354735
61.800000 -1.361829 -1.354735
61.850000 -1.361131 -1.354735
61.900000 -1.360286 -1.354735
61.950000 -1.359316 -1.354735
62.000000 -1.358246 -1.354735
62.050000 -1.357102 -1.354735
62.100000 -1.355913 -1.354735
62.150000 -1.354705 -1.354735
62.200000 -1.353510 -1.354735
62.250000 -1.352354 -1.354735
62.300000 -1.351266 -1.354735
62.350000 -1.350270 -1.354735
62.400000 -1.349389 -1.354735
62.450000 -1.348644 -1.354735
62.500000 -1.348050 -1.354735
62.550000 -1.347621 -1.354735
62.600000 -1.347365 -1.354735
62.650000 -1.347287 -1.354735
62.700000 -1.347388 -1.354735
62.750000 -1.347662 -1.354735
62.800000 -1.348102 -1.354735
62.850000 -1.348696 -1.354735
62.900000 -1.349429 -1.354735
62.950000 -1.350281 -1.354735
63.000000 -1.351232 -1.354735
63.050000 -1.352257 -1.354735
63.100000 -1.353333 -1.354735
63.150000 -1.354432 -1.354735
63.200000 -1.355528 -1.354735
63.250000 -1.356595 -1.354735
63.300000 -1.357609 -1.354735
63.350000 -1.358545 -1.354735
63.400000 -1.359382 -1.354735
63.450000 -1.360100 -1.354735
63.500000 -1.360685 -1.354735
63.550000 -1.361122 -1.354735
63.600000 -1.361403 -1.354735
63.650000 -1.361523 -1.354735
63.700000 -1.361480 -1.354735
63.750000 -1.361277 -1.354735
63.800000 -1.360920 -1.354735
63.850000 -1.360419 -1.354735
63.900000 -1.359787 -1.354735
63.950000 -1.359041 -1.354735
64.000000 -1.358198 -1.354735
64.050000 -1.357281 -1.354735
64.100000 -1.356312 -1.354735
64.150000 -1.355313 -1.354735
64.200000 -1.354310 -1.354735
64.250000 -1.353326 -1.354735
64.300000 -1.352385 -1.354735
64.350000 -1.351508 -1.354735
64.400000 -1.350715 -1.354735
64.450000 -1.350026 -1.354735
64.500000 -1.349455 -1.354735
64.550000 -1.349015 -1.354735
64.600000 -1.348715 -1.354735
64.650000 -1.348561 -1.354735
64.700000 -1.348556 -1.354735
64.750000 -1.348698 -1.354735
64.800000 -1.348982 -1.354735
64.850000 -1.349401 -1.354735
64.900000 -1.349943 -1.354735
64.950000 -1.350594 -1.354735
65.000000 -1.351338 -1.354735
65.050000 -1.352156 -1.354735
65.100000 -1.353028 -1.354735
65.150000 -1.353933 -1.354735
65.200000 -1.354849 -1.354735
65.250000 -1.355754 -1.354735
65.300000 -1.356626 -1.354735
65.350000 -1.357446 -1.354735
65.400000 -1.358193 -1.354735
65.450000 -1.358852 -1.354735
65.500000 -1.359406 -1.354735
65.550000 -1.359844 -1.354735
65.600000 -1.360157 -1.354735
65.650000 -1.360338 -1.354735
65.700000 -1.360383 -1.354735
65.750000 -1.360294 -1.354735
65.800000 -1.360073 -1.354735
65.850000 -1.359727 -1.354735
65.900000 -1.359265 -1.354735
65.950000 -1.358700 -1.354735
66.000000 -1.358045 -1.354735
66.050000 -1.357317 -1.354735
66.100000 -1.356534 -1.354735
66.150000 -1.355716 -1.354735
66.200000 -1.354881 -1.354735
66.250000 -1.354051 -1.354735
66.300000 -1.353245 -1.354735
66.350000 -1.352481 -1.354735
66.400000 -1.351778 -1.354735
66.450000 -1.351151 -1.354735
66.500000 -1.350616 -1.354735
66.550000 -1.350183 -1.354735
66.600000 -1.349863 -1.354735
66.650000 -1.349662 -1.354735
66.700000 -1.349583 -1.354735
66.750000 -1.349628 -1.354735
66.800000 -1.349794 -1.354735
66.850000 -1.350076 -1.354735
66.900000 -1.350467 -1.354735
66.950000 -1.350955 -1.354735
67.000000 -1.351530 -1.354735
67.050000 -1.352175 -1.354735
67.100000 -1.352876 -1.354735
67.150000 -1.353614 -1.354735
67.200000 -1.354373 -1.354735
67.250000 -1.355133 -1.354735
67.300000 -1.355877 -1.354735
67.350000 -1.356587 -1.354735
67.400000 -1.357247 -1.354735
67.450000 -1.357840 -1.354735
67.500000 -1.358355 -1.354735
67.550000 -1.358778 -1.354735
67.600000 -1.359102 -1.354735
67.650000 -1.359318 -1.354735
67.700000 -1.359424 -1.354735
67.750000 -1.359417 -1.354735
67.800000 -1.359298 -1.354735
67.850000 -1.359072 -1.354735
67.900000 -1.358745 -1.354735
67.950000 -1.358325 -1.354735
68.000000 -1.357823 -1.354735
68.050000 -1.357252 -1.354735
68.100000 -1.356627 -1.354735
68.150000 -1.355962 -1.354735
68.200000 -1.355274 -1.354735
68.250000 -1.354579 -1.354735
68.300000 -1.353894 -1.354735
68.350000 -1.353236 -1.354735
68.400000 -1.352619 -1.354735
68.450000 -1.352058 -1.354735
68.500000 -1.351566 -1.354735
68.550000 -1.351154 -1.354735
68.600000 -1.350831 -1.354735
68.650000 -1.350603 -1.354735
68.700000 -1.350477 -1.354735
68.750000 -1.350452 -1.354735
68.800000 -1.350530 -1.354735
68.850000 -1.350708 -1.354735
68.900000 -1.350979 -1.354735
68.950000 -1.351338 -1.354735
69.000000 -1.351774 -1.354735
69.050000 -1.352277 -1.354735
69.100000 -1.352834 -1.354735
69.150000 -1.353431 -1.354735
69.200000 -1.354054 -1.354735
69.250000 -1.354687 -1.354735
69.300000 -1.355316 -1.354735
69.350000 -1.355925 -1.354735
69.400000 -1.356501 -1.354735
69.450000 -1.357029 -1.354735
69.500000 -1.357498 -1.354735
69.550000 -1.357896 -1.354735
69.600000 -1.358216 -1.354735
69.650000 -1.358450 -1.354735
69.700000 -1.358594 -1.354735
69.750000 -1.358644 -1.354735
69.800000 -1.358601 -1.354735
69.850000 -1.358466 -1.354735
69.900000 -1.358243 -1.354735
69.950000 -1.357939 -1.354735
70.000000 -1.357561 -1.354735
70.050000 -1.357120 -1.354735
70.100000 -1.356625 -1.354735
70.150000 -1.356090 -1.354735
70.200000 -1.355528 -1.354735
70.250000 -1.354952 -1.354735
70.300000 -1.354376 -1.354735
70.350000 -1.353813 -1.354735
70.400000 -1.353278 -1.354735
70.450000 -1.352782 -1.354735
70.500000 -1.352337 -1.354735
70.550000 -1.351954 -1.354735
70.600000 -1.351640 -1.354735
70.650000 -1.351402 -1.354735
70.700000 -1.351246 -1.354735
70.750000 -1.351175 -1.354735
70.800000 -1.351189 -1.354735
70.850000 -1.351287 -1.354735
70.900000 -1.351466 -1.354735
70.950000 -1.351722 -1.354735
71.000000 -1.352047 -1.354735
71.050000 -1.352434 -1.354735
71.100000 -1.352871 -1.354735
71.150000 -1.353349 -1.354735
71.200000 -1.353856 -1.354735
71.250000 -1.354379 -1.354735
71.300000 -1.354906 -1.354735
71.350000 -1.355424 -1.354735
71.400000 -1.355921 -1.354735
71.450000 -1.356385 -1.354735
71.500000 -1.356806 -1.354735
71.550000 -1.357173 -1.354735
71.600000 -1.357479 -1.354735
71.650000 -1.357717 -1.354735
71.700000 -1.357882 -1.354735
71.750000 -1.357971 -1.354735
71.800000 -1.357981 -1.354735
71.850000 -1.357915 -1.354735
71.900000 -1.357773 -1.354735
71.950000 -1.357560 -1.354735
72.000000 -1.357281 -1.354735
72.050000 -1.356945 -1.354735
72.100000 -1.356559 -1.354735
72.150000 -1.356133 -1.354735
72.200000 -1.355677 -1.354735
72.250000 -1.355204 -1.354735
72.300000 -1.354723 -1.354735
72.350000 -1.354247 -1.354735
72.400000 -1.353787 -1.354735
72.450000 -1.353354 -1.354735
72.500000 -1.352957 -1.354735
72.550000 -1.352606 -1.354735
72.600000 -1.352310 -1.354735
72.650000 -1.352073 -1.354735
72.700000 -1.351902 -1.354735
72.750000 -1.351801 -1.354735
72.800000 -1.351770 -1.354735
72.850000 -1.351810 -1.354735
72.900000 -1.351919 -1.354735
72.950000 -1.352094 -1.354735
73.000000 -1.352331 -1.354735
73.050000 -1.352622 -1.354735
73.100000 -1.352962 -1.354735
73.150000 -1.353340 -1.354735
73.200000 -1.353749 -1.354735
73.250000 -1.354177 -1.354735
73.300000 -1.354614 -1.354735
73.350000 -1.355051 -1.354735
73.400000 -1.355476 -1.354735
73.450000 -1.355880 -1.354735
73.500000 -1.356252 -1.354735
73.550000 -1.356585 -1.354735
73.600000 -1.356871 -1.354735
73.650000 -1.357104 -1.354735
73.700000 -1.357278 -1.354735
73.750000 -1.357390 -1.354735
73.800000 -1.357438 -1.354735
73.850000 -1.357421 -1.354735
73.900000 -1.357340 -1.354735
73.950000 -1.357198 -1.354735
74.000000 -1.356998 -1.354735
74.050000 -1.356746 -1.354735
74.100000 -1.356449 -1.354735
74.150000 -1.356114 -1.354735
74.200000 -1.355749 -1.354735
74.250000 -1.355362 -1.354735
74.300000 -1.354965 -1.354735
74.350000 -1.354566 -1.354735
74.400000 -1.354174 -1.354735
74.450000 -1.353799 -1.354735
74.500000 -1.353450 -1.354735
74.550000 -1.353134 -1.354735
74.600000 -1.352860 -1.354735
74.650000 -1.352633 -1.354735
74.700000 -1.352457 -1.354735
74.750000 -1.352338 -1.354735
74.800000 -1.352277 -1.354735
74.850000 -1.352275 -1.354735
74.900000 -1.352331 -1.354735
74.950000 -1.352444 -1.354735
75.000000 -1.352611 -1.354735
75.050000 -1.352827 -1.354735
75.100000 -1.353086 -1.354735
75.150000 -1.353383 -1.354735
75.200000 -1.353708 -1.354735
75.250000 -1.354056 -1.354735
75.300000 -1.354416 -1.354735
75.350000 -1.354781 -1.354735
75.400000 -1.355141 -1.354735
75.450000 -1.355488 -1.354735
75.500000 -1.355815 -1.354735
75.550000 -1.356112 -1.354735
75.600000 -1.356374 -1.354735
75.650000 -1.356595 -1.354735
75.700000 -1.356770 -1.354735
75.750000 -1.356894 -1.354735
75.800000 -1.356966 -1.354735
75.850000 -1.356984 -1.354735
75.900000 -1.356948 -1.354735
75.950000 -1.356860 -1.354735
76.000000 -1.356722 -1.354735
76.050000 -1.356539 -1.354735
76.100000 -1.356313 -1.354735
76.150000 -1.356053 -1.354735
76.200000 -1.355763 -1.354735
76.250000 -1.355451 -1.354735
76.300000 -1.355125 -1.354735
76.350000 -1.354793 -1.354735
76.400000 -1.354462 -1.354735
76.450000 -1.354141 -1.354735
76.500000 -1.353837 -1.354735
76.550000 -1.353557 -1.354735
76.600000 -1.353308 -1.354735
76.650000 -1.353095 -1.354735
76.700000 -1.352923 -1.354735
76.750000 -1.352795 -1.354735
76.800000 -1.352715 -1.354735
76.850000 -1.352684 -1.354735
76.900000 -1.352702 -1.354735
76.950000 -1.352768 -1.354735
77.000000 -1.352880 -1.354735
77.050000 -1.353036 -1.354735
77.100000 -1.353230 -1.354735
77.150000 -1.353459 -1.354735
77.200000 -1.353716 -1.354735
77.250000 -1.353995 -1.354735
77.300000 -1.354289 -1.354735
77.350000 -1.354591 -1.354735
77.400000 -1.354894 -1.354735
77.450000 -1.355190 -1.354735
77.500000 -1.355473 -1.354735
77.550000 -1.355735 -1.354735
77.600000 -1.355972 -1.354735
77.650000 -1.356176 -1.354735
77.700000 -1.356345 -1.354735
77.750000 -1.356474 -1.354735
77.800000 -1.356560 -1.354735
77.850000 -1.356602 -1.354735
77.900000 -1.356599 -1.354735
77.950000 -1.356552 -1.354735
78.000000 -1.356462 -1.354735
78.050000 -1.356331 -1.354735
78.100000 -1.356164 -1.354735
78.150000 -1.355964 -1.354735
78.200000 -1.355737 -1.354735
78.250000 -1.355488 -1.354735
78.300000 -1.355223 -1.354735
78.350000 -1.354949 -1.354735
78.400000 -1.354673 -1.354735
78.450000 -1.354400 -1.354735
78.500000 -1.354138 -1.354735
78.550000 -1.353892 -1.354735
78.600000 -1.353669 -1.354735
78.650000 -1.353473 -1.354735
78.700000 -1.353309 -1.354735
78.750000 -1.353180 -1.354735
78.800000 -1.353090 -1.354735
78.850000 -1.353039 -1.354735
78.900000 -1.353030 -1.354735
78.950000 -1.353061 -1.354735
79.000000 -1.353132 -1.354735
79.050000 -1.353240 -1.354735
79.100000 -1.353383 -1.354735
79.150000 -1.353556 -1.354735
79.200000 -1.353757 -1.354735
79.250000 -1.353978 -1.354735
79.300000 -1.354216 -1.354735
79.350000 -1.354464 -1.354735
79.400000 -1.354716 -1.354735
79.450000 -1.354967 -1.354735
79.500000 -1.355209 -1.354735
79.550000 -1.355438 -1.354735
79.600000 -1.355649 -1.354735
79.650000 -1.355835 -1.354735
79.700000 -1.355994 -1.354735
79.750000 -1.356121 -1.354735
79.800000 -1.356214 -1.354735
79.850000 -1.356271 -1.354735
79.900000 -1.356291 -1.354735
79.950000 -1.356274 -1.354735
80.000000 -1.356220 -1.354735
80.050000 -1.356132 -1.354735
80.100000 -1.356011 -1.354735
80.150000 -1.355860 -1.354735
80.200000 -1.355684 -1.354735
80.250000 -1.355488 -1.354735
80.300000 -1.355275 -1.354735
80.350000 -1.355051 -1.354735
80.400000 -1.354821 -1.354735
80.450000 -1.354592 -1.354735
80.500000 -1.354368 -1.354735
80.550000 -1.354155 -1.354735
80.600000 -1.353957 -1.354735
80.650000 -1.353780 -1.354735
80.700000 -1.353627 -1.354735
80.750000 -1.353502 -1.354735
80.800000 -1.353408 -1.354735
80.850000 -1.353346 -1.354735
80.900000 -1.353317 -1.354735
80.950000 -1.353323 -1.354735
81.000000 -1.353362 -1.354735
81.050000 -1.353434 -1.354735
81.100000 -1.353536 -1.354735
81.150000 -1.353665 -1.354735
81.200000 -1.353819 -1.354735
81.250000 -1.353993 -1.354735
81.300000 -1.354183 -1.354735
81.350000 -1.354385 -1.354735
81.400000 -1.354593 -1.354735
81.450000 -1.354803 -1.354735
81.500000 -1.355009 -1.354735
81.550000 -1.355207 -1.354735
81.600000 -1.355392 -1.354735
81.650000 -1.355560 -1.354735
81.700000 -1.355706 -1.354735
81.750000 -1.355828 -1.354735
81.800000 -1.355923 -1.354735
81.850000 -1.355988 -1.354735
81.900000 -1.356023 -1.354735
81.950000 -1.356028 -1.354735
82.000000 -1.356001 -1.354735
82.050000 -1.355944 -1.354735
82.100000 -1.355860 -1.354735
82.150000 -1.355749 -1.354735
82.200000 -1.355615 -1.354735
82.250000 -1.355461 -1.354735
82.300000 -1.355291 -1.354735
82.350000 -1.355110 -1.354735
82.400000 -1.354921 -1.354735
82.450000 -1.354730 -1.354735
82.500000 -1.354541 -1.354735
82.550000 -1.354357 -1.354735
82.600000 -1.354185 -1.354735
82.650000 -1.354027 -1.354735
82.700000 -1.353887 -1.354735
82.750000 -1.353769 -1.354735
82.800000 -1.353675 -1.354735
82.850000 -1.353607 -1.354735
82.900000 -1.353567 -1.354735
82.950000 -1.353554 -1.354735
83.000000 -1.353570 -1.354735
83.050000 -1.353614 -1.354735
83.100000 -1.353684 -1.354735
83.150000 -1.353778 -1.354735
83.200000 -1.353894 -1.354735
83.250000 -1.354029 -1.354735
83.300000 -1.354180 -1.354735
83.350000 -1.354342 -1.354735
83.400000 -1.354513 -1.354735
83.450000 -1.354687 -1.354735
83.500000 -1.354861 -1.354735
83.550000 -1.355030 -1.354735
83.600000 -1.355191 -1.354735
83.650000 -1.355339 -1.354735
83.700000 -1.355472 -1.354735
83.750000 -1.355586 -1.354735
83.800000 -1.355678 -1.354735
83.850000 -1.355748 -1.354735
83.900000 -1.355792 -1.354735
83.950000 -1.355811 -1.354735
84.000000 -1.355804 -1.354735
84.050000 -1.355772 -1.354735
84.100000 -1.355716 -1.354735
84.150000 -1.355636 -1.354735
84.200000 -1.355536 -1.354735
84.250000 -1.355417 -1.354735
84.300000 -1.355284 -1.354735
84.350000 -1.355138 -1.354735
84.400000 -1.354985 -1.354735
84.450000 -1.354826 -1.354735
84.500000 -1.354667 -1.354735
84.550000 -1.354511 -1.354735
84.600000 -1.354362 -1.354735
84.650000 -1.354223 -1.354735
84.700000 -1.354098 -1.354735
84.750000 -1.353988 -1.354735
84.800000 -1.353898 -1.354735
84.850000 -1.353828 -1.354735
84.900000 -1.353781 -1.354735
84.950000 -1.353756 -1.354735
85.000000 -1.353755 -1.354735
85.050000 -1.353778 -1.354735
85.100000 -1.353823 -1.354735
85.150000 -1.353889 -1.354735
85.200000 -1.353975 -1.354735
85.250000 -1.354079 -1.354735
85.300000 -1.354197 -1.354735
85.350000 -1.354326 -1.354735
85.400000 -1.354465 -1.354735
85.450000 -1.354608 -1.354735
85.500000 -1.354753 -1.354735
85.550000 -1.354897 -1.354735
85.600000 -1.355035 -1.354735
85.650000 -1.355165 -1.354735
85.700000 -1.355283 -1.354735
85.750000 -1.355388 -1.354735
85.800000 -1.355476 -1.354735
85.850000 -1.355545 -1.354735
85.900000 -1.355595 -1.354735
85.950000 -1.355623 -1.354735
86.000000 -1.355630 -1.354735
86.050000 -1.355616 -1.354735
86.100000 -1.355581 -1.354735
86.150000 -1.355526 -1.354735
86.200000 -1.355453 -1.354735
86.250000 -1.355363 -1.354735
86.300000 -1.355260 -1.354735
86.350000 -1.355144 -1.354735
86.400000 -1.355020 -1.354735
86.450000 -1.354890 -1.354735
86.500000 -1.354758 -1.354735
86.550000 -1.354626 -1.354735
86.600000 -1.354499 -1.354735
86.650000 -1.354377 -1.354735
86.700000 -1.354266 -1.354735
86.750000 -1.354167 -1.354735
86.800000 -1.354082 -1.354735
86.850000 -1.354013 -1.354735
86.900000 -1.353963 -1.354735
86.950000 -1.353931 -1.354735
87.000000 -1.353918 -1.354735
87.050000 -1.353925 -1.354735
87.100000 -1.353952 -1.354735
87.150000 -1.353996 -1.354735
87.200000 -1.354058 -1.354735
87.250000 -1.354136 -1.354735
87.300000 -1.354227 -1.354735
87.350000 -1.354329 -1.354735
87.400000 -1.354440 -1.354735
87.450000 -1.354557 -1.354735
87.500000 -1.354678 -1.354735
87.550000 -1.354798 -1.354735
87.600000 -1.354916 -1.354735
87.650000 -1.355029 -1.354735
87.700000 -1.355133 -1.354735
87.750000 -1.355227 -1.354735
87.800000 -1.355309 -1.354735
87.850000 -1.355376 -1.354735
87.900000 -1.355427 -1.354735
87.950000 -1.355462 -1.354735
88.000000 -1.355478 -1.354735
88.050000 -1.355477 -1.354735
88.100000 -1.355458 -1.354735
88.150000 -1.355423 -1.354735
88.200000 -1.355371 -1.354735
88.250000 -1.355304 -1.354735
88.300000 -1.355224 -1.354735
88.350000 -1.355134 -1.354735
88.400000 -1.355035 -1.354735
88.450000 -1.354929 -1.354735
88.500000 -1.354820 -1.354735
88.550000 -1.354710 -1.354735
88.600000 -1.354602 -1.354735
88.650000 -1.354497 -1.354735
88.700000 -1.354399 -1.354735
88.750000 -1.354311 -1.354735
88.800000 -1.354233 -1.354735
88.850000 -1.354167 -1.354735
88.900000 -1.354116 -1.354735
88.950000 -1.354080 -1.354735
89.000000 -1.354060 -1.354735
89.050000 -1.354056 -1.354735
89.100000 -1.354068 -1.354735
89.150000 -1.354097 -1.354735
89.200000 -1.354140 -1.354735
89.250000 -1.354197 -1.354735
89.300000 -1.354266 -1.354735
89.350000 -1.354345 -1.354735
89.400000 -1.354434 -1.354735
89.450000 -1.354528 -1.354735
89.500000 -1.354627 -1.354735
89.550000 -1.354728 -1.354735
89.600000 -1.354827 -1.354735
89.650000 -1.354924 -1.354735
89.700000 -1.355015 -1.354735
89.750000 -1.355099 -1.354735
89.800000 -1.355173 -1.354735
89.850000 -1.355236 -1.354735
89.900000 -1.355287 -1.354735
89.950000 -1.355324 -1.354735
90.000000 -1.355347 -1.354735
90.050000 -1.355355 -1.354735
90.100000 -1.355348 -1.354735
90.150000 -1.355326 -1.354735
90.200000 -1.355291 -1.354735
90.250000 -1.355243 -1.354735
90.300000 -1.355183 -1.354735
90.350000 -1.355113 -1.354735
90.400000 -1.355035 -1.354735
90.450000 -1.354950 -1.354735
90.500000 -1.354861 -1.354735
90.550000 -1.354769 -1.354735
90.600000 -1.354678 -1.354735
90.650000 -1.354589 -1.354735
90.700000 -1.354504 -1.354735
90.750000 -1.354425 -1.354735
90.800000 -1.354355 -1.354735
90.850000 -1.354294 -1.354735
90.900000 -1.354244 -1.354735
90.950000 -1.354207 -1.354735
91.000000 -1.354182 -1.354735
91.050000 -1.354171 -1.354735
91.100000 -1.354173 -1.354735
91.150000 -1.354188 -1.354735
91.200000 -1.354217 -1.354735
91.250000 -1.354257 -1.354735
91.300000 -1.354309 -1.354735
91.350000 -1.354370 -1.354735
91.400000 -1.354440 -1.354735
91.450000 -1.354515 -1.354735
91.500000 -1.354596 -1.354735
91.550000 -1.354679 -1.354735
91.600000 -1.354762 -1.354735
91.650000 -1.354844 -1.354735
91.700000 -1.354923 -1.354735
91.750000 -1.354997 -1.354735
91.800000 -1.355063 -1.354735
91.850000 -1.355122 -1.354735
91.900000 -1.355170 -1.354735
91.950000 -1.355208 -1.354735
92.000000 -1.355234 -1.354735
92.050000 -1.355248 -1.354735
92.100000 -1.355250 -1.354735
92.150000 -1.355239 -1.354735
92.200000 -1.355217 -1.354735
92.250000 -1.355183 -1.354735
92.300000 -1.355139 -1.354735
92.350000 -1.355085 -1.354735
92.400000 -1.355024 -1.354735
92.450000 -1.354957 -1.354735
92.500000 -1.354884 -1.354735
92.550000 -1.354809 -1.354735
92.600000 -1.354733 -1.354735
92.650000 -1.354658 -1.354735
92.700000 -1.354585 -1.354735
92.750000 -1.354516 -1.354735
92.800000 -1.354453 -1.354735
92.850000 -1.354397 -1.354735
92.900000 -1.354350 -1.354735
92.950000 -1.354313 -1.354735
93.000000 -1.354286 -1.354735
93.050000 -1.354270 -1.354735
93.100000 -1.354265 -1.354735
93.150000 -1.354271 -1.354735
93.200000 -1.354289 -1.354735
93.250000 -1.354316 -1.354735
93.300000 -1.354354 -1.354735
93.350000 -1.354400 -1.354735
93.400000 -1.354454 -1.354735
93.450000 -1.354514 -1.354735
93.500000 -1.354579 -1.354735
93.550000 -1.354647 -1.354735
93.600000 -1.354716 -1.354735
93.650000 -1.354785 -1.354735
93.700000 -1.354853 -1.354735
93.750000 -1.354917 -1.354735
93.800000 -1.354976 -1.354735
93.850000 -1.355028 -1.354735
93.900000 -1.355074 -1.354735
93.950000 -1.355111 -1.354735
94.000000 -1.355138 -1.354735
94.050000 -1.355156 -1.354735
94.100000 -1.355164 -1.354735
94.150000 -1.355161 -1.354735
94.200000 -1.355148 -1.354735
94.250000 -1.355125 -1.354735
94.300000 -1.355094 -1.354735
94.350000 -1.355054 -1.354735
94.400000 -1.355007 -1.354735
94.450000 -1.354954 -1.354735
94.500000 -1.354896 -1.354735
94.550000 -1.354834 -1.354735
94.600000 -1.354771 -1.354735
94.650000 -1.354708 -1.354735
94.700000 -1.354646 -1.354735
94.750000 -1.354587 -1.354735
94.800000 -1.354531 -1.354735
94.850000 -1.354481 -1.354735
94.900000 -1.354438 -1.354735
94.950000 -1.354402 -1.354735
95.000000 -1.354374 -1.354735
95.050000 -1.354355 -1.354735
95.100000 -1.354345 -1.354735
95.150000 -1.354345 -1.354735
95.200000 -1.354354 -1.354735
95.250000 -1.354372 -1.354735
95.300000 -1.354398 -1.354735
95.350000 -1.354433 -1.354735
95.400000 -1.354474 -1.354735
95.450000 -1.354521 -1.354735
95.500000 -1.354572 -1.354735
95.550000 -1.354627 -1.354735
95.600000 -1.354685 -1.354735
95.650000 -1.354742 -1.354735
95.700000 -1.354799 -1.354735
95.750000 -1.354854 -1.354735
95.800000 -1.354906 -1.354735
95.850000 -1.354953 -1.354735
95.900000 -1.354995 -1.354735
95.950000 -1.355030 -1.354735
96.000000 -1.355058 -1.354735
96.050000 -1.355077 -1.354735
96.100000 -1.355089 -1.354735
96.150000 -1.355092 -1.354735
96.200000 -1.355086 -1.354735
96.250000 -1.355072 -1.354735
96.300000 -1.355050 -1.354735
96.350000 -1.355021 -1.354735
96.400000 -1.354985 -1.354735
96.450000 -1.354944 -1.354735
96.500000 -1.354898 -1.354735
96.550000 -1.354848 -1.354735
96.600000 -1.354797 -1.354735
96.650000 -1.354744 -1.354735
96.700000 -1.354692 -1.354735
96.750000 -1.354641 -1.354735
96.800000 -1.354593 -1.354735
96.850000 -1.354548 -1.354735
96.900000 -1.354509 -1.354735
96.950000 -1.354475 -1.354735
97.000000 -1.354448 -1.354735
97.050000 -1.354427 -1.354735
97.100000 -1.354415 -1.354735
97.150000 -1.354410 -1.354735
97.200000 -1.354413 -1.354735
97.250000 -1.354423 -1.354735
97.300000 -1.354441 -1.354735
97.350000 -1.354466 -1.354735
97.400000 -1.354496 -1.354735
97.450000 -1.354533 -1.354735
97.500000 -1.354574 -1.354735
97.550000 -1.354618 -1.354735
97.600000 -1.354664 -1.354735
97.650000 -1.354712 -1.354735
97.700000 -1.354760 -1.354735
97.750000 -1.354807 -1.354735
97.800000 -1.354852 -1.354735
97.850000 -1.354894 -1.354735
97.900000 -1.354931 -1.354735
97.950000 -1.354964 -1.354735
98.000000 -1.354990 -1.354735
98.050000 -1.355011 -1.354735
98.100000 -1.355024 -1.354735
98.150000 -1.355031 -1.354735
98.200000 -1.355031 -1.354735
98.250000 -1.355023 -1.354735
98.300000 -1.355009 -1.354735
98.350000 -1.354988 -1.354735
98.400000 -1.354962 -1.354735
98.450000 -1.354930 -1.354735
98.500000 -1.354894 -1.354735
98.550000 -1.354854 -1.354735
98.600000 -1.354812 -1.354735
98.650000 -1.354769 -1.354735
98.700000 -1.354725 -1.354735
98.750000 -1.354682 -1.354735
98.800000 -1.354640 -1.354735
98.850000 -1.354601 -1.354735
98.900000 -1.354566 -1.354735
98.950000 -1.354535 -1.354735
99.000000 -1.354509 -1.354735
99.050000 -1.354489 -1.354735
99.100000 -1.354474 -1.354735
99.150000 -1.354466 -1.354735
99.200000 -1.354465 -1.354735
99.250000 -1.354470 -1.354735
99.300000 -1.354481 -1.354735
99.350000 -1.354498 -1.354735
99.400000 -1.354521 -1.354735
99.450000 -1.354548 -1.354735
99.500000 -1.354580 -1.354735
99.550000 -1.354615 -1.354735
99.600000 -1.354653 -1.354735
99.650000 -1.354692 -1.354735
99.700000 -1.354732 -1.354735
99.750000 -1.354772 -1.354735
99.800000 -1.354810 -1.354735
99.850000 -1.354847 -1.354735
99.900000 -1.354880 -1.354735
99.950000 -1.354909 -1.354735
100.000000 -1.354935 -1.354735
100.050000 -1.354955 -1.354735
100.100000 -1.354970 -1.354735
100.150000 -1.354979 -1.354735
100.200000 -1.354982 -1.354735
100.250000 -1.354979 -1.354735
100.300000 -1.354970 -1.354735
100.350000 -1.354956 -1.354735
100.400000 -1.354937 -1.354735
100.450000 -1.354913 -1.354735
100.500000 -1.354885 -1.354735
100.550000 -1.354854 -1.354735
100.600000 -1.354821 -1.354735
100.650000 -1.354785 -1.354735
100.700000 -1.354749 -1.354735
100.750000 -1.354712 -1.354735
100.800000 -1.354677 -1.354735
100.850000 -1.354643 -1.354735
100.900000 -1.354612 -1.354735
100.950000 -1.354584 -1.354735
101.000000 -1.354559 -1.354735
101.050000 -1.354540 -1.354735
101.100000 -1.354525 -1.354735
101.150000 -1.354515 -1.354735
101.200000 -1.354510 -1.354735
101.250000 -1.354511 -1.354735
101.300000 -1.354517 -1.354735
101.350000 -1.354529 -1.354735
101.400000 -1.354545 -1.354735
101.450000 -1.354565 -1.354735
101.500000 -1.354590 -1.354735
101.550000 -1.354617 -1.354735
101.600000 -1.354648 -1.354735
101.650000 -1.354680 -1.354735
101.700000 -1.354713 -1.354735
101.750000 -1.354746 -1.354735
101.800000 -1.354779 -1.354735
101.850000 -1.354810 -1.354735
101.900000 -1.354839 -1.354735
101.950000 -1.354866 -1.354735
102.000000 -1.354889 -1.354735
102.050000 -1.354908 -1.354735
102.100000 -1.354923 -1.354735
102.150000 -1.354934 -1.354735
102.200000 -1.354939 -1.354735
102.250000 -1.354940 -1.354735
102.300000 -1.354936 -1.354735
102.350000 -1.354927 -1.354735
102.400000 -1.354913 -1.354735
102.450000 -1.354896 -1.354735
102.500000 -1.354874 -1.354735
102.550000 -1.354850 -1.354735
102.600000 -1.354823 -1.354735
102.650000 -1.354794 -1.354735
102.700000 -1.354765 -1.354735
102.750000 -1.354734 -1.354735
102.800000 -1.354704 -1.354735
102.850000 -1.354675 -1.354735
102.900000 -1.354648 -1.354735
102.950000 -1.354623 -1.354735
103.000000 -1.354601 -1.354735
103.050000 -1.354582 -1.354735
103.100000 -1.354567 -1.354735
103.150000 -1.354556 -1.354735
103.200000 -1.354550 -1.354735
103.250000 -1.354548 -1.354735
103.300000 -1.354550 -1.354735
103.350000 -1.354557 -1.354735
103.400000 -1.354568 -1.354735
103.450000 -1.354583 -1.354735
103.500000 -1.354602 -1.354735
103.550000 -1.354623 -1.354735
103.600000 -1.354647 -1.354735
103.650000 -1.354673 -1.354735
103.700000 -1.354700 -1.354735
103.750000 -1.354727 -1.354735
103.800000 -1.354755 -1.354735
103.850000 -1.354782 -1.354735
103.900000 -1.354807 -1.354735
103.950000 -1.354831 -1.354735
104.000000 -1.354852 -1.354735
104.050000 -1.354870 -1.354735
104.100000 -1.354885 -1.354735
104.150000 -1.354896 -1.354735
104.200000 -1.354903 -1.354735
104.250000 -1.354906 -1.354735
104.300000 -1.354905 -1.354735
104.350000 -1.354899 -1.354735
104.400000 -1.354890 -1.354735
104.450000 -1.354878 -1.354735
104.500000 -1.354862 -1.354735
104.550000 -1.354843 -1.354735
104.600000 -1.354822 -1.354735
104.650000 -1.354799 -1.354735
104.700000 -1.354775 -1.354735
104.750000 -1.354749 -1.354735
104.800000 -1.354724 -1.354735
104.850000 -1.354700 -1.354735
104.900000 -1.354676 -1.354735
104.950000 -1.354654 -1.354735
105.000000 -1.354634 -1.354735
105.050000 -1.354617 -1.354735
105.100000 -1.354602 -1.354735
105.150000 -1.354591 -1.354735
105.200000 -1.354584 -1.354735
105.250000 -1.354580 -1.354735
105.300000 -1.354580 -1.354735
105.350000 -1.354583 -1.354735
105.400000 -1.354590 -1.354735
105.450000 -1.354601 -1.354735
105.500000 -1.354615 -1.354735
105.550000 -1.354631 -1.354735
105.600000 -1.354650 -1.354735
105.650000 -1.354670 -1.354735
105.700000 -1.354692 -1.354735
105.750000 -1.354715 -1.354735
105.800000 -1.354738 -1.354735
105.850000 -1.354761 -1.354735
105.900000 -1.354783 -1.354735
105.950000 -1.354803 -1.354735
106.000000 -1.354822 -1.354735
106.050000 -1.354839 -1.354735
106.100000 -1.354852 -1.354735
106.150000 -1.354863 -1.354735
106.200000 -1.354871 -1.354735
106.250000 -1.354876 -1.354735
106.300000 -1.354877 -1.354735
106.350000 -1.354875 -1.354735
106.400000 -1.354869 -1.354735
106.450000 -1.354860 -1.354735
106.500000 -1.354849 -1.354735
106.550000 -1.354835 -1.354735
106.600000 -1.354818 -1.354735
106.650000 -1.354800 -1.354735
106.700000 -1.354780 -1.354735
106.750000 -1.354760 -1.354735
106.800000 -1.354739 -1.354735
106.850000 -1.354718 -1.354735
106.900000 -1.354698 -1.354735
106.950000 -1.354678 -1.354735
107.000000 -1.354661 -1.354735
107.050000 -1.354645 -1.354735
107.100000 -1.354631 -1.354735
107.150000 -1.354621 -1.354735
107.200000 -1.354613 -1.354735
107.250000 -1.354607 -1.354735
107.300000 -1.354606 -1.354735
107.350000 -1.354607 -1.354735
107.400000 -1.354611 -1.354735
107.450000 -1.354618 -1.354735
107.500000 -1.354628 -1.354735
107.550000 -1.354640 -1.354735
107.600000 -1.354654 -1.354735
107.650000 -1.354671 -1.354735
107.700000 -1.354688 -1.354735
107.750000 -1.354707 -1.354735
107.800000 -1.354726 -1.354735
107.850000 -1.354745 -1.354735
107.900000 -1.354764 -1.354735
107.950000 -1.354782 -1.354735
108.000000 -1.354798 -1.354735
108.050000 -1.354813 -1.354735
108.100000 -1.354826 -1.354735
108.150000 -1.354837 -1.354735
108.200000 -1.354845 -1.354735
108.250000 -1.354850 -1.354735
108.300000 -1.354853 -1.354735
108.350000 -1.354853 -1.354735
108.400000 -1.354850 -1.354735
108.450000 -1.354844 -1.354735
108.500000 -1.354836 -1.354735
108.550000 -1.354825 -1.354735
108.600000 -1.354813 -1.354735
108.650000 -1.354798 -1.354735
108.700000 -1.354783 -1.354735
108.750000 -1.354766 -1.354735
108.800000 -1.354749 -1.354735
108.850000 -1.354731 -1.354735
108.900000 -1.354714 -1.354735
108.950000 -1.354697 -1.354735
109.000000 -1.354682 -1.354735
109.050000 -1.354668 -1.354735
109.100000 -1.354655 -1.354735
109.150000 -1.354645 -1.354735
109.200000 -1.354637 -1.354735
109.250000 -1.354631 -1.354735
109.300000 -1.354628 -1.354735
109.350000 -1.354627 -1.354735
109.400000 -1.354629 -1.354735
109.450000 -1.354634 -1.354735
109.500000 -1.354641 -1.354735
109.550000 -1.354650 -1.354735
109.600000 -1.354661 -1.354735
109.650000 -1.354673 -1.354735
109.700000 -1.354687 -1.354735
109.750000 -1.354702 -1.354735
109.800000 -1.354718 -1.354735
109.850000 -1.354734 -1.354735
109.900000 -1.354750 -1.354735
109.950000 -1.354765 -1.354735
110.000000 -1.354779 -1.354735
110.050000 -1.354793 -1.354735
110.100000 -1.354804 -1.354735
110.150000 -1.354814 -1.354735
110.200000 -1.354823 -1.354735
110.250000 -1.354828 -1.354735
110.300000 -1.354832 -1.354735
110.350000 -1.354833 -1.354735
110.400000 -1.354832 -1.354735
110.450000 -1.354829 -1.354735
110.500000 -1.354823 -1.354735
110.550000 -1.354816 -1.354735
110.600000 -1.354806 -1.354735
110.650000 -1.354795 -1.354735
110.700000 -1.354782 -1.354735
110.750000 -1.354769 -1.354735
110.800000 -1.354755 -1.354735
110.850000 -1.354740 -1.354735
110.900000 -1.354726 -1.354735
110.950000 -1.354712 -1.354735
111.000000 -1.354698 -1.354735
111.050000 -1.354686 -1.354735
111.100000 -1.354675 -1.354735
111.150000 -1.354665 -1.354735
111.200000 -1.354657 -1.354735
111.250000 -1.354651 -1.354735
111.300000 -1.354647 -1.354735
111.350000 -1.354646 -1.354735
111.400000 -1.354646 -1.354735
111.450000 -1.354648 -1.354735
111.500000 -1.354653 -1.354735
111.550000 -1.354659 -1.354735
111.600000 -1.354667 -1.354735
111.650000 -1.354677 -1.354735
111.700000 -1.354688 -1.354735
111.750000 -1.354700 -1.354735
111.800000 -1.354713 -1.354735
111.850000 -1.354726 -1.354735
111.900000 -1.354739 -1.354735
111.950000 -1.354752 -1.354735
112.000000 -1.354765 -1.354735
112.050000 -1.354777 -1.354735
112.100000 -1.354787 -1.354735
112.150000 -1.354796 -1.354735
112.200000 -1.354804 -1.354735
112.250000 -1.354810 -1.354735
112.300000 -1.354814 -1.354735
112.350000 -1.354816 -1.354735
112.400000 -1.354817 -1.354735
112.450000 -1.354815 -1.354735
112.500000 -1.354811 -1.354735
112.550000 -1.354806 -1.354735
112.600000 -1.354799 -1.354735
112.650000 -1.354791 -1.354735
112.700000 -1.354781 -1.354735
112.750000 -1.354770 -1.354735
112.800000 -1.354759 -1.354735
112.850000 -1.354747 -1.354735
112.900000 -1.354735 -1.354735
112.950000 -1.354723 -1.354735
113.000000 -1.354711 -1.354735
113.050000 -1.354700 -1.354735
113.100000 -1.354690 -1.354735
113.150000 -1.354681 -1.354735
113.200000 -1.354674 -1.354735
113.250000 -1.354668 -1.354735
113.300000 -1.354664 -1.354735
113.350000 -1.354661 -1.354735
113.400000 -1.354660 -1.354735
113.450000 -1.354661 -1.354735
113.500000 -1.354664 -1.354735
113.550000 -1.354669 -1.354735
113.600000 -1.354675 -1.354735
113.650000 -1.354682 -1.354735
113.700000 -1.354690 -1.354735
113.750000 -1.354700 -1.354735
113.800000 -1.354710 -1.354735
113.850000 -1.354721 -1.354735
113.900000 -1.354732 -1.354735
113.950000 -1.354743 -1.354735
114.000000 -1.354754 -1.354735
114.050000 -1.354764 -1.354735
114.100000 -1.354773 -1.354735
114.150000 -1.354782 -1.354735
114.200000 -1.354789 -1.354735
114.250000 -1.354795 -1.354735
114.300000 -1.354799 -1.354735
114.350000 -1.354802 -1.354735
114.400000 -1.354803 -1.354735
114.450000 -1.354803 -1.354735
114.500000 -1.354800 -1.354735
114.550000 -1.354797 -1.354735
114.600000 -1.354792 -1.354735
114.650000 -1.354786 -1.354735
114.700000 -1.354778 -1.354735
114.750000 -1.354770 -1.354735
114.800000 -1.354760 -1.354735
114.850000 -1.354751 -1.354735
114.900000 -1.354741 -1.354735
114.950000 -1.354731 -1.354735
115.000000 -1.354721 -1.354735
115.050000 -1.354711 -1.354735
115.100000 -1.354703 -1.354735
115.150000 -1.354695 -1.354735
115.200000 -1.354688 -1.354735
115.250000 -1.354682 -1.354735
115.300000 -1.354678 -1.354735
115.350000 -1.354675 -1.354735
115.400000 -1.354673 -1.354735
115.450000 -1.354673 -1.354735
115.500000 -1.354675 -1.354735
115.550000 -1.354677 -1.354735
115.600000 -1.354682 -1.354735
115.650000 -1.354687 -1.354735
115.700000 -1.354694 -1.354735
115.750000 -1.354701 -1.354735
115.800000 -1.354709 -1.354735
115.850000 -1.354718 -1.354735
115.900000 -1.354727 -1.354735
115.950000 -1.354736 -1.354735
116.000000 -1.354745 -1.354735
116.050000 -1.354754 -1.354735
116.100000 -1.354762 -1.354735
116.150000 -1.354770 -1.354735
116.200000 -1.354776 -1.354735
116.250000 -1.354782 -1.354735
116.300000 -1.354786 -1.354735
116.350000 -1.354789 -1.354735
116.400000 -1.354791 -1.354735
116.450000 -1.354792 -1.354735
116.500000 -1.354791 -1.354735
116.550000 -1.354788 -1.354735
116.600000 -1.354785 -1.354735
116.650000 -1.354780 -1.354735
116.700000 -1.354775 -1.354735
116.750000 -1.354768 -1.354735
116.800000 -1.354761 -1.354735
116.850000 -1.354753 -1.354735
116.900000 -1.354745 -1.354735
116.950000 -1.354736 -1.354735
117.000000 -1.354728 -1.354735
117.050000 -1.354720 -1.354735
117.100000 -1.354712 -1.354735
117.150000 -1.354705 -1.354735
117.200000 -1.354699 -1.354735
117.250000 -1.354694 -1.354735
117.300000 -1.354689 -1.354735
117.350000 -1.354686 -1.354735
117.400000 -1.354684 -1.354735
117.450000 -1.354683 -1.354735
117.500000 -1.354684 -1.354735
117.550000 -1.354686 -1.354735
117.600000 -1.354688 -1.354735
117.650000 -1.354692 -1.354735
117.700000 -1.354697 -1.354735
117.750000 -1.354703 -1.354735
117.800000 -1.354709 -1.354735
117.850000 -1.354716 -1.354735
117.900000 -1.354724 -1.354735
117.950000 -1.354731 -1.354735
118.000000 -1.354739 -1.354735
118.050000 -1.354746 -1.354735
118.100000 -1.354754 -1.354735
118.150000 -1.354760 -1.354735
118.200000 -1.354766 -1.354735
118.250000 -1.354771 -1.354735
118.300000 -1.354775 -1.354735
118.350000 -1.354779 -1.354735
118.400000 -1.354781 -1.354735
118.450000 -1.354782 -1.354735
118.500000 -1.354782 -1.354735
118.550000 -1.354781 -1.354735
118.600000 -1.354778 -1.354735
118.650000 -1.354775 -1.354735
118.700000 -1.354771 -1.354735
118.750000 -1.354766 -1.354735
118.800000 -1.354760 -1.354735
118.850000 -1.354754 -1.354735
118.900000 -1.354747 -1.354735
118.950000 -1.354740 -1.354735
119.000000 -1.354733 -1.354735
119.050000 -1.354727 -1.354735
119.100000 -1.354720 -1.354735
119.150000 -1.354714 -1.354735
119.200000 -1.354708 -1.354735
119.250000 -1.354703 -1.354735
119.300000 -1.354699 -1.354735
119.350000 -1.354696 -1.354735
119.400000 -1.354694 -1.354735
119.450000 -1.354692 -1.354735
119.500000 -1.354692 -1.354735
119.550000 -1.354693 -1.354735
119.600000 -1.354695 -1.354735
119.650000 -1.354697 -1.354735
119.700000 -1.354701 -1.354735
119.750000 -1.354705 -1.354735
119.800000 -1.354710 -1.354735
119.850000 -1.354716 -1.354735
119.900000 -1.354722 -1.354735
119.950000 -1.354728 -1.354735
120.000000 -1.354735 -1.354735
120.050000 -1.354741 -1.354735
120.100000 -1.354747 -1.354735
120.150000 -1.354753 -1.354735
120.200000 -1.354758 -1.354735
120.250000 -1.354763 -1.354735
120.300000 -1.354767 -1.354735
120.350000 -1.354770 -1.354735
120.400000 -1.354772 -1.354735
120.450000 -1.354774 -1.354735
120.500000 -1.354774 -1.354735
120.550000 -1.354774 -1.354735
120.600000 -1.354772 -1.354735
120.650000 -1.354770 -1.354735
120.700000 -1.354767 -1.354735
120.750000 -1.354763 -1.354735
120.800000 -1.354759 -1.354735
120.850000 -1.354754 -1.354735
120.900000 -1.354749 -1.354735
120.950000 -1.354743 -1.354735
121.000000 -1.354737 -1.354735
121.050000 -1.354731 -1.354735
121.100000 -1.354726 -1.354735
121.150000 -1.354720 -1.354735
121.200000 -1.354715 -1.354735
121.250000 -1.354711 -1.354735
121.300000 -1.354707 -1.354735
121.350000 -1.354704 -1.354735
121.400000 -1.354702 -1.354735
121.450000 -1.354700 -1.354735
121.500000 -1.354699 -1.354735
121.550000 -1.354700 -1.354735
121.600000 -1.354701 -1.354735
121.650000 -1.354702 -1.354735
121.700000 -1.354705 -1.354735
121.750000 -1.354708 -1.354735
121.800000 -1.354712 -1.354735
121.850000 -1.354716 -1.354735
121.900000 -1.354721 -1.354735
121.950000 -1.354726 -1.354735
122.000000 -1.354731 -1.354735
122.050000 -1.354737 -1.354735
122.100000 -1.354742 -1.354735
122.150000 -1.354747 -1.354735
122.200000 -1.354752 -1.354735
122.250000 -1.354756 -1.354735
122.300000 -1.354759 -1.354735
122.350000 -1.354762 -1.354735
122.400000 -1.354765 -1.354735
122.450000 -1.354767 -1.354735
122.500000 -1.354767 -1.354735
122.550000 -1.354768 -1.354735
122.600000 -1.354767 -1.354735
122.650000 -1.354765 -1.354735
122.700000 -1.354763 -1.354735
122.750000 -1.354760 -1.354735
122.800000 -1.354757 -1.354735
122.850000 -1.354753 -1.354735
122.900000 -1.354749 -1.354735
122.950000 -1.354744 -1.354735
123.000000 -1.354740 -1.354735
123.050000 -1.354735 -1.354735
123.100000 -1.354730 -1.354735
123.150000 -1.354726 -1.354735
123.200000 -1.354721 -1.354735
123.250000 -1.354717 -1.354735
123.300000 -1.354714 -1.354735
123.350000 -1.354711 -1.354735
123.400000 -1.354708 -1.354735
123.450000 -1.354707 -1.354735
123.500000 -1.354706 -1.354735
123.550000 -1.354705 -1.354735
123.600000 -1.354706 -1.354735
123.650000 -1.354707 -1.354735
123.700000 -1.354709 -1.354735
123.750000 -1.354711 -1.354735
123.800000 -1.354714 -1.354735
123.850000 -1.354717 -1.354735
123.900000 -1.354721 -1.354735
123.950000 -1.354725 -1.354735
124.000000 -1.354729 -1.354735
124.050000 -1.354734 -1.354735
124.100000 -1.354738 -1.354735
124.150000 -1.354742 -1.354735
124.200000 -1.354746 -1.354735
124.250000 -1.354750 -1.354735
124.300000 -1.354754 -1.354735
124.350000 -1.354756 -1.354735
124.400000 -1.354759 -1.354735
124.450000 -1.354760 -1.354735
124.500000 -1.354762 -1.354735
124.550000 -1.354762 -1.354735
124.600000 -1.354762 -1.354735
124.650000 -1.354761 -1.354735
124.700000 -1.354760 -1.354735
124.750000 -1.354758 -1.354735
124.800000 -1.354755 -1.354735
124.850000 -1.354752 -1.354735
124.900000 -1.354749 -1.354735
124.950000 -1.354745 -1.354735
125.000000 -1.354741 -1.354735
125.050000 -1.354737 -1.354735
125.100000 -1.354733 -1.354735
125.150000 -1.354729 -1.354735
125.200000 -1.354726 -1.354735
125.250000 -1.354722 -1.354735
125.300000 -1.354719 -1.354735
125.350000 -1.354716 -1.354735
125.400000 -1.354714 -1.354735
125.450000 -1.354712 -1.354735
125.500000 -1.354711 -1.354735
125.550000 -1.354710 -1.354735
125.600000 -1.354710 -1.354735
125.650000 -1.354711 -1.354735
125.700000 -1.354712 -1.354735
125.750000 -1.354714 -1.354735
125.800000 -1.354716 -1.354735
125.850000 -1.354719 -1.354735
125.900000 -1.354721 -1.354735
125.950000 -1.354725 -1.354735
126.000000 -1.354728 -1.354735
126.050000 -1.354732 -1.354735
126.100000 -1.354735 -1.354735
126.150000 -1.354739 -1.354735
126.200000 -1.354743 -1.354735
126.250000 -1.354746 -1.354735
126.300000 -1.354749 -1.354735
126.350000 -1.354751 -1.354735
126.400000 -1.354754 -1.354735
126.450000 -1.354755 -1.354735
126.500000 -1.354757 -1.354735
126.550000 -1.354757 -1.354735
126.600000 -1.354758 -1.354735
126.650000 -1.354757 -1.354735
126.700000 -1.354756 -1.354735
126.750000 -1.354755 -1.354735
126.800000 -1.354753 -1.354735
126.850000 -1.354751 -1.354735
126.900000 -1.354748 -1.354735
126.950000 -1.354745 -1.354735
127.000000 -1.354742 -1.354735
127.050000 -1.354739 -1.354735
127.100000 -1.354736 -1.354735
127.150000 -1.354732 -1.354735
127.200000 -1.354729 -1.354735
127.250000 -1.354726 -1.354735
127.300000 -1.354723 -1.354735
127.350000 -1.354721 -1.354735
127.400000 -1.354719 -1.354735
127.450000 -1.354717 -1.354735
127.500000 -1.354716 -1.354735
127.550000 -1.354715 -1.354735
127.600000 -1.354714 -1.354735
127.650000 -1.354715 -1.354735
127.700000 -1.354715 -1.354735
127.750000 -1.354716 -1.354735
127.800000 -1.354718 -1.354735
127.850000 -1.354720 -1.354735
127.900000 -1.354722 -1.354735
127.950000 -1.354725 -1.354735
128.000000 -1.354728 -1.354735
128.050000 -1.354731 -1.354735
128.100000 -1.354734 -1.354735
128.150000 -1.354737 -1.354735
128.200000 -1.354740 -1.354735
128.250000 -1.354742 -1.354735
128.300000 -1.354745 -1.354735
128.350000 -1.354747 -1.354735
128.400000 -1.354749 -1.354735
128.450000 -1.354751 -1.354735
128.500000 -1.354752 -1.354735
128.550000 -1.354753 -1.354735
128.600000 -1.354754 -1.354735
128.650000 -1.354754 -1.354735
128.700000 -1.354753 -1.354735
128.750000 -1.354752 -1.354735
128.800000 -1.354751 -1.354735
128.850000 -1.354749 -1.354735
128.900000 -1.354747 -1.354735
128.950000 -1.354745 -1.354735
129.000000 -1.354743 -1.354735
129.050000 -1.354740 -1.354735
129.100000 -1.354737 -1.354735
129.150000 -1.354734 -1.354735
129.200000 -1.354732 -1.354735
129.250000 -1.354729 -1.354735
129.300000 -1.354727 -1.354735
129.350000 -1.354724 -1.354735
129.400000 -1.354722 -1.354735
129.450000 -1.354721 -1.354735
129.500000 -1.354719 -1.354735
129.550000 -1.354719 -1.354735
129.600000 -1.354718 -1.354735
129.650000 -1.354718 -1.354735
129.700000 -1.354718 -1.354735
129.750000 -1.354719 -1.354735
129.800000 -1.354720 -1.354735
129.850000 -1.354721 -1.354735
129.900000 -1.354723 -1.354735
129.950000 -1.354725 -1.354735
130.000000 -1.354727 -1.354735
130.050000 -1.354730 -1.354735
130.100000 -1.354732 -1.354735
130.150000 -1.354735 -1.354735
130.200000 -1.354737 -1.354735
130.250000 -1.354740 -1.354735
130.300000 -1.354742 -1.354735
130.350000 -1.354744 -1.354735
130.400000 -1.354746 -1.354735
130.450000 -1.354748 -1.354735
130.500000 -1.354749 -1.354735
130.550000 -1.354750 -1.354735
130.600000 -1.354750 -1.354735
130.650000 -1.354751 -1.354735
130.700000 -1.354750 -1.354735
130.750000 -1.354750 -1.354735
130.800000 -1.354749 -1.354735
130.850000 -1.354748 -1.354735
130.900000 -1.354746 -1.354735
130.950000 -1.354745 -1.354735
131.000000 -1.354743 -1.354735
131.050000 -1.354740 -1.354735
131.100000 -1.354738 -1.354735
131.150000 -1.354736 -1.354735
131.200000 -1.354734 -1.354735
131.250000 -1.354731 -1.354735
131.300000 -1.354729 -1.354735
131.350000 -1.354727 -1.354735
131.400000 -1.354725 -1.354735
131.450000 -1.354724 -1.354735
131.500000 -1.354723 -1.354735
131.550000 -1.354722 -1.354735
131.600000 -1.354721 -1.354735
131.650000 -1.354721 -1.354735
131.700000 -1.354721 -1.354735
131.750000 -1.354721 -1.354735
131.800000 -1.354722 -1.354735
131.850000 -1.354723 -1.354735
131.900000 -1.354724 -1.354735
131.950000 -1.354726 -1.354735
132.000000 -1.354728 -1.354735
132.050000 -1.354730 -1.354735
132.100000 -1.354732 -1.354735
132.150000 -1.354734 -1.354735
132.200000 -1.354736 -1.354735
132.250000 -1.354738 -1.354735
132.300000 -1.354740 -1.354735
132.350000 -1.354742 -1.354735
132.400000 -1.354743 -1.354735
132.450000 -1.354745 -1.354735
132.500000 -1.354746 -1.354735
132.550000 -1.354747 -1.354735
132.600000 -1.354748 -1.354735
132.650000 -1.354748 -1.354735
132.700000 -1.354748 -1.354735
132.750000 -1.354748 -1.354735
132.800000 -1.354747 -1.354735
132.850000 -1.354746 -1.354735
132.900000 -1.354745 -1.354735
132.950000 -1.354744 -1.354735
133.000000 -1.354742 -1.354735
133.050000 -1.354741 -1.354735
133.100000 -1.354739 -1.354735
133.150000 -1.354737 -1.354735
133.200000 -1.354735 -1.354735
133.250000 -1.354733 -1.354735
133.300000 -1.354731 -1.354735
133.350000 -1.354730 -1.354735
133.400000 -1.354728 -1.354735
133.450000 -1.354727 -1.354735
133.500000 -1.354725 -1.354735
133.550000 -1.354724 -1.354735
133.600000 -1.354724 -1.354735
133.650000 -1.354723 -1.354735
133.700000 -1.354723 -1.354735
133.750000 -1.354723 -1.354735
133.800000 -1.354724 -1.354735
133.850000 -1.354724 -1.354735
133.900000 -1.354725 -1.354735
133.950000 -1.354727 -1.354735
134.000000 -1.354728 -1.354735
134.050000 -1.354729 -1.354735
134.100000 -1.354731 -1.354735
134.150000 -1.354733 -1.354735
134.200000 -1.354735 -1.354735
134.250000 -1.354736 -1.354735
134.300000 -1.354738 -1.354735
134.350000 -1.354740 -1.354735
134.400000 -1.354741 -1.354735
134.450000 -1.354742 -1.354735
134.500000 -1.354744 -1.354735
134.550000 -1.354744 -1.354735
134.600000 -1.354745 -1.354735
134.650000 -1.354746 -1.354735
134.700000 -1.354746 -1.354735
134.750000 -1.354746 -1.354735
134.800000 -1.354745 -1.354735
134.850000 -1.354745 -1.354735
134.900000 -1.354744 -1.354735
134.950000 -1.354743 -1.354735
135.000000 -1.354742 -1.354735
135.050000 -1.354741 -1.354735
135.100000 -1.354739 -1.354735
135.150000 -1.354738 -1.354735
135.200000 -1.354736 -1.354735
135.250000 -1.354734 -1.354735
135.300000 -1.354733 -1.354735
135.350000 -1.354731 -1.354735
135.400000 -1.354730 -1.354735
135.450000 -1.354729 -1.354735
135.500000 -1.354728 -1.354735
135.550000 -1.354727 -1.354735
135.600000 -1.354726 -1.354735
135.650000 -1.354725 -1.354735
135.700000 -1.354725 -1.354735
135.750000 -1.354725 -1.354735
135.800000 -1.354725 -1.354735
135.850000 -1.354726 -1.354735
135.900000 -1.354727 -1.354735
135.950000 -1.354727 -1.354735
136.000000 -1.354728 -1.354735
136.050000 -1.354730 -1.354735
136.100000 -1.354731 -1.354735
136.150000 -1.354732 -1.354735
136.200000 -1.354734 -1.354735
136.250000 -1.354735 -1.354735
136.300000 -1.354737 -1.354735
136.350000 -1.354738 -1.354735
136.400000 -1.354739 -1.354735
136.450000 -1.354741 -1.354735
136.500000 -1.354742 -1.354735
136.550000 -1.354742 -1.354735
136.600000 -1.354743 -1.354735
136.650000 -1.354744 -1.354735
136.700000 -1.354744 -1.354735
136.750000 -1.354744 -1.354735
136.800000 -1.354744 -1.354735
136.850000 -1.354743 -1.354735
136.900000 -1.354743 -1.354735
136.950000 -1.354742 -1.354735
137.000000 -1.354741 -1.354735
137.050000 -1.354740 -1.354735
137.100000 -1.354739 -1.354735
137.150000 -1.354738 -1.354735
137.200000 -1.354737 -1.354735
137.250000 -1.354735 -1.354735
137.300000 -1.354734 -1.354735
137.350000 -1.354733 -1.354735
137.400000 -1.354731 -1.354735
137.450000 -1.354730 -1.354735
137.500000 -1.354729 -1.354735
137.550000 -1.354728 -1.354735
137.600000 -1.354728 -1.354735
137.650000 -1.354727 -1.354735
137.700000 -1.354727 -1.354735
137.750000 -1.354727 -1.354735
137.800000 -1.354727 -1.354735
137.850000 -1.354727 -1.354735
137.900000 -1.354728 -1.354735
137.950000 -1.354728 -1.354735
138.000000 -1.354729 -1.354735
138.050000 -1.354730 -1.354735
138.100000 -1.354731 -1.354735
138.150000 -1.354732 -1.354735
138.200000 -1.354733 -1.354735
138.250000 -1.354734 -1.354735
138.300000 -1.354736 -1.354735
138.350000 -1.354737 -1.354735
138.400000 -1.354738 -1.354735
138.450000 -1.354739 -1.354735
138.500000 -1.354740 -1.354735
138.550000 -1.354741 -1.354735
138.600000 -1.354741 -1.354735
138.650000 -1.354742 -1.354735
138.700000 -1.354742 -1.354735
138.750000 -1.354742 -1.354735
138.800000 -1.354742 -1.354735
138.850000 -1.354742 -1.354735
138.900000 -1.354742 -1.354735
138.950000 -1.354741 -1.354735
139.000000 -1.354741 -1.354735
139.050000 -1.354740 -1.354735
139.100000 -1.354739 -1.354735
139.150000 -1.354738 -1.354735
139.200000 -1.354737 -1.354735
139.250000 -1.354736 -1.354735
139.300000 -1.354735 -1.354735
139.350000 -1.354734 -1.354735
139.400000 -1.354733 -1.354735
139.450000 -1.354732 -1.354735
139.500000 -1.354731 -1.354735
139.550000 -1.354730 -1.354735
139.600000 -1.354729 -1.354735
139.650000 -1.354729 -1.354735
139.700000 -1.354728 -1.354735
139.750000 -1.354728 -1.354735
139.800000 -1.354728 -1.354735
139.850000 -1.354728 -1.354735
139.900000 -1.354729 -1.354735
139.950000 -1.354729 -1.354735
140.000000 -1.354730 -1.354735
140.050000 -1.354730 -1.354735
140.100000 -1.354731 -1.354735
140.150000 -1.354732 -1.354735
140.200000 -1.354733 -1.354735
140.250000 -1.354734 -1.354735
140.300000 -1.354735 -1.354735
140.350000 -1.354736 -1.354735
140.400000 -1.354737 -1.354735
140.450000 -1.354738 -1.354735
140.500000 -1.354739 -1.354735
140.550000 -1.354739 -1.354735
140.600000 -1.354740 -1.354735
140.650000 -1.354741 -1.354735
140.700000 -1.354741 -1.354735
140.750000 -1.354741 -1.354735
140.800000 -1.354741 -1.354735
140.850000 -1.354741 -1.354735
140.900000 -1.354741 -1.354735
140.950000 -1.354741 -1.354735
141.000000 -1.354740 -1.354735
141.050000 -1.354739 -1.354735
141.100000 -1.354739 -1.354735
141.150000 -1.354738 -1.354735
141.200000 -1.354737 -1.354735
141.250000 -1.354736 -1.354735
141.300000 -1.354735 -1.354735
141.350000 -1.354734 -1.354735
141.400000 -1.354734 -1.354735
141.450000 -1.354733 -1.354735
141.500000 -1.354732 -1.354735
141.550000 -1.354731 -1.354735
141.600000 -1.354731 -1.354735
141.650000 -1.354730 -1.354735
141.700000 -1.354730 -1.354735
141.750000 -1.354729 -1.354735
141.800000 -1.354729 -1.354735
141.850000 -1.354729 -1.354735
141.900000 -1.354730 -1.354735
141.950000 -1.354730 -1.354735
142.000000 -1.354730 -1.354735
142.050000 -1.354731 -1.354735
142.100000 -1.354731 -1.354735
142.150000 -1.354732 -1.354735
142.200000 -1.354733 -1.354735
142.250000 -1.354734 -1.354735
142.300000 -1.354734 -1.354735
142.350000 -1.354735 -1.354735
142.400000 -1.354736 -1.354735
142.450000 -1.354737 -1.354735
142.500000 -1.354738 -1.354735
142.550000 -1.354738 -1.354735
142.600000 -1.354739 -1.354735
142.650000 -1.354739 -1.354735
142.700000 -1.354740 -1.354735
142.750000 -1.354740 -1.354735
142.800000 -1.354740 -1.354735
142.850000 -1.354740 -1.354735
142.900000 -1.354740 -1.354735
142.950000 -1.354740 -1.354735
143.000000 -1.354739 -1.354735
143.050000 -1.354739 -1.354735
143.100000 -1.354739 -1.354735
143.150000 -1.354738 -1.354735
143.200000 -1.354737 -1.354735
143.250000 -1.354737 -1.354735
143.300000 -1.354736 -1.354735
143.350000 -1.354735 -1.354735
143.400000 -1.354734 -1.354735
143.450000 -1.354734 -1.354735
143.500000 -1.354733 -1.354735
143.550000 -1.354732 -1.354735
143.600000 -1.354732 -1.354735
143.650000 -1.354731 -1.354735
143.700000 -1.354731 -1.354735
143.750000 -1.354731 -1.354735
143.800000 -1.354730 -1.354735
143.850000 -1.354730 -1.354735
143.900000 -1.354730 -1.354735
143.950000 -1.354731 -1.354735
144.000000 -1.354731 -1.354735
144.050000 -1.354731 -1.354735
144.100000 -1.354732 -1.354735
144.150000 -1.354732 -1.354735
144.200000 -1.354733 -1.354735
144.250000 -1.354733 -1.354735
144.300000 -1.354734 -1.354735
144.350000 -1.354735 -1.354735
144.400000 -1.354736 -1.354735
144.450000 -1.354736 -1.354735
144.500000 -1.354737 -1.354735
144.550000 -1.354737 -1.354735
144.600000 -1.354738 -1.354735
144.650000 -1.354738 -1.354735
144.700000 -1.354739 -1.354735
144.750000 -1.354739 -1.354735
144.800000 -1.354739 -1.354735
144.850000 -1.354739 -1.354735
144.900000 -1.354739 -1.354735
144.950000 -1.354739 -1.354735
145.000000 -1.354739 -1.354735
145.050000 -1.354739 -1.354735
145.100000 -1.354738 -1.354735
145.150000 -1.354738 -1.354735
145.200000 -1.354737 -1.354735
145.250000 -1.354737 -1.354735
145.300000 -1.354736 -1.354735
145.350000 -1.354735 -1.354735
145.400000 -1.354735 -1.354735
145.450000 -1.354734 -1.354735
145.500000 -1.354734 -1.354735
145.550000 -1.354733 -1.354735
145.600000 -1.354732 -1.354735
145.650000 -1.354732 -1.354735
145.700000 -1.354732 -1.354735
145.750000 -1.354731 -1.354735
145.800000 -1.354731 -1.354735
145.850000 -1.354731 -1.354735
145.900000 -1.354731 -1.354735
145.950000 -1.354731 -1.354735
146.000000 -1.354731 -1.354735
146.050000 -1.354732 -1.354735
146.100000 -1.354732 -1.354735
146.150000 -1.354732 -1.354735
146.200000 -1.354733 -1.354735
146.250000 -1.354733 -1.354735
146.300000 -1.354734 -1.354735
146.350000 -1.354735 -1.354735
146.400000 -1.354735 -1.354735
146.450000 -1.354736 -1.354735
146.500000 -1.354736 -1.354735
146.550000 -1.354737 -1.354735
146.600000 -1.354737 -1.354735
146.650000 -1.354738 -1.354735
146.700000 -1.354738 -1.354735
146.750000 -1.354738 -1.354735
146.800000 -1.354738 -1.354735
146.850000 -1.354739 -1.354735
146.900000 -1.354739 -1.354735
146.950000 -1.354739 -1.354735
147.000000 -1.354738 -1.354735
147.050000 -1.354738 -1.354735
147.100000 -1.354738 -1.354735
147.150000 -1.354738 -1.354735
147.200000 -1.354737 -1.354735
147.250000 -1.354737 -1.354735
147.300000 -1.354736 -1.354735
147.350000 -1.354736 -1.354735
147.400000 -1.354735 -1.354735
147.450000 -1.354735 -1.354735
147.500000 -1.354734 -1.354735
147.550000 -1.354734 -1.354735
147.600000 -1.354733 -1.354735
147.650000 -1.354733 -1.354735
147.700000 -1.354732 -1.354735
147.750000 -1.354732 -1.354735
147.800000 -1.354732 -1.354735
147.850000 -1.354732 -1.354735
147.900000 -1.354732 -1.354735
147.950000 -1.354732 -1.354735
148.000000 -1.354732 -1.354735
148.050000 -1.354732 -1.354735
148.100000 -1.354732 -1.354735
148.150000 -1.354733 -1.354735
148.200000 -1.354733 -1.354735
148.250000 -1.354733 -1.354735
148.300000 -1.354734 -1.354735
148.350000 -1.354734 -1.354735
148.400000 -1.354735 -1.354735
148.450000 -1.354735 -1.354735
148.500000 -1.354736 -1.354735
148.550000 -1.354736 -1.354735
148.600000 -1.354737 -1.354735
148.650000 -1.354737 -1.354735
148.700000 -1.354737 -1.354735
148.750000 -1.354738 -1.354735
148.800000 -1.354738 -1.354735
148.850000 -1.354738 -1.354735
148.900000 -1.354738 -1.354735
148.950000 -1.354738 -1.354735
149.000000 -1.354738 -1.354735
149.050000 -1.354738 -1.354735
149.100000 -1.354738 -1.354735
149.150000 -1.354737 -1.354735
149.200000 -1.354737 -1.354735
149.250000 -1.354737 -1.354735
149.300000 -1.354736 -1.354735
149.350000 -1.354736 -1.354735
149.400000 -1.354735 -1.354735
149.450000 -1.354735 -1.354735
149.500000 -1.354734 -1.354735
149.550000 -1.354734 -1.354735
149.600000 -1.354734 -1.354735
149.650000 -1.354733 -1.354735
149.700000 -1.354733 -1.354735
149.750000 -1.354733 -1.354735
149.800000 -1.354733 -1.354735
149.850000 -1.354732 -1.354735
149.900000 -1.354732 -1.354735
149.950000 -1.354732 -1.354735
150.000000 -1.354732 -1.354735
150.050000 -1.354732 -1.354735
150.100000 -1.354733 -1.354735
150.150000 -1.354733 -1.354735
150.200000 -1.354733 -1.354735
150.250000 -1.354733 -1.354735
150.300000 -1.354734 -1.354735
150.350000 -1.354734 -1.354735
150.400000 -1.354735 -1.354735
150.450000 -1.354735 -1.354735
150.500000 -1.354735 -1.354735
150.550000 -1.354736 -1.354735
150.600000 -1.354736 -1.354735
150.650000 -1.354736 -1.354735
150.700000 -1.354737 -1.354735
150.750000 -1.354737 -1.354735
150.800000 -1.354737 -1.354735
150.850000 -1.354737 -1.354735
150.900000 -1.354737 -1.354735
150.950000 -1.354737 -1.354735
151.000000 -1.354737 -1.354735
151.050000 -1.354737 -1.354735
151.100000 -1.354737 -1.354735
151.150000 -1.354737 -1.354735
151.200000 -1.354737 -1.354735
151.250000 -1.354737 -1.354735
151.300000 -1.354736 -1.354735
151.350000 -1.354736 -1.354735
151.400000 -1.354736 -1.354735
151.450000 -1.354735 -1.354735
151.500000 -1.354735 -1.354735
151.550000 -1.354734 -1.354735
151.600000 -1.354734 -1.354735
151.650000 -1.354734 -1.354735
151.700000 -1.354733 -1.354735
151.750000 -1.354733 -1.354735
151.800000 -1.354733 -1.354735
151.850000 -1.354733 -1.354735
151.900000 -1.354733 -1.354735
151.950000 -1.354733 -1.354735
152.000000 -1.354733 -1.354735
152.050000 -1.354733 -1.354735
152.100000 -1.354733 -1.354735
152.150000 -1.354733 -1.354735
152.200000 -1.354733 -1.354735
152.250000 -1.354734 -1.354735
152.300000 -1.354734 -1.354735
152.350000 -1.354734 -1.354735
152.400000 -1.354734 -1.354735
152.450000 -1.354735 -1.354735
152.500000 -1.354735 -1.354735
152.550000 -1.354735 -1.354735
152.600000 -1.354736 -1.354735
152.650000 -1.354736 -1.354735
152.700000 -1.354736 -1.354735
152.750000 -1.354737 -1.354735
152.800000 -1.354737 -1.354735
152.850000 -1.354737 -1.354735
152.900000 -1.354737 -1.354735
152.950000 -1.354737 -1.354735
153.000000 -1.354737 -1.354735
153.050000 -1.354737 -1.354735
153.100000 -1.354737 -1.354735
153.150000 -1.354737 -1.354735
153.200000 -1.354737 -1.354735
153.250000 -1.354736 -1.354735
153.300000 -1.354736 -1.354735
153.350000 -1.354736 -1.354735
153.400000 -1.354736 -1.354735
153.450000 -1.354735 -1.354735
153.500000 -1.354735 -1.354735
153.550000 -1.354735 -1.354735
153.600000 -1.354734 -1.354735
153.650000 -1.354734 -1.354735
153.700000 -1.354734 -1.354735
153.750000 -1.354734 -1.354735
153.800000 -1.354733 -1.354735
153.850000 -1.354733 -1.354735
153.900000 -1.354733 -1.354735
153.950000 -1.354733 -1.354735
154.000000 -1.354733 -1.354735
154.050000 -1.354733 -1.354735
154.100000 -1.354733 -1.354735
154.150000 -1.354733 -1.354735
154.200000 -1.354733 -1.354735
154.250000 -1.354734 -1.354735
154.300000 -1.354734 -1.354735
154.350000 -1.354734 -1.354735
154.400000 -1.354734 -1.354735
154.450000 -1.354735 -1.354735
154.500000 -1.354735 -1.354735
154.550000 -1.354735 -1.354735
154.600000 -1.354735 -1.354735
154.650000 -1.354736 -1.354735
154.700000 -1.354736 -1.354735
154.750000 -1.354736 -1.354735
154.800000 -1.354736 -1.354735
154.850000 -1.354737 -1.354735
154.900000 -1.354737 -1.354735
154.950000 -1.354737 -1.354735
155.000000 -1.354737 -1.354735
155.050000 -1.354737 -1.354735
155.100000 -1.354737 -1.354735
155.150000 -1.354737 -1.354735
155.200000 -1.354736 -1.354735
155.250000 -1.354736 -1.354735
155.300000 -1.354736 -1.354735
155.350000 -1.354736 -1.354735
155.400000 -1.354736 -1.354735
155.450000 -1.354735 -1.354735
155.500000 -1.354735 -1.354735
155.550000 -1.354735 -1.354735
155.600000 -1.354735 -1.354735
155.650000 -1.354734 -1.354735
155.700000 -1.354734 -1.354735
155.750000 -1.354734 -1.354735
155.800000 -1.354734 -1.354735
155.850000 -1.354734 -1.354735
155.900000 -1.354734 -1.354735
155.950000 -1.354734 -1.354735
156.000000 -1.354733 -1.354735
156.050000 -1.354733 -1.354735
156.100000 -1.354733 -1.354735
156.150000 -1.354734 -1.354735
156.200000 -1.354734 -1.354735
156.250000 -1.354734 -1.354735
156.300000 -1.354734 -1.354735
156.350000 -1.354734 -1.354735
156.400000 -1.354734 -1.354735
156.450000 -1.354735 -1.354735
156.500000 -1.354735 -1.354735
156.550000 -1.354735 -1.354735
156.600000 -1.354735 -1.354735
156.650000 -1.354735 -1.354735
156.700000 -1.354736 -1.354735
156.750000 -1.354736 -1.354735
156.800000 -1.354736 -1.354735
156.850000 -1.354736 -1.354735
156.900000 -1.354736 -1.354735
156.950000 -1.354736 -1.354735
157.000000 -1.354736 -1.354735
157.050000 -1.354736 -1.354735
157.100000 -1.354736 -1.354735
157.150000 -1.354736 -1.354735
157.200000 -1.354736 -1.354735
157.250000 -1.354736 -1.354735
157.300000 -1.354736 -1.354735
157.350000 -1.354736 -1.354735
157.400000 -1.354736 -1.354735
157.450000 -1.354735 -1.354735
157.500000 -1.354735 -1.354735
157.550000 -1.354735 -1.354735
157.600000 -1.354735 -1.354735
157.650000 -1.354735 -1.354735
157.700000 -1.354734 -1.354735
157.750000 -1.354734 -1.354735
157.800000 -1.354734 -1.354735
157.850000 -1.354734 -1.354735
157.900000 -1.354734 -1.354735
157.950000 -1.354734 -1.354735
158.000000 -1.354734 -1.354735
158.050000 -1.354734 -1.354735
158.100000 -1.354734 -1.354735
158.150000 -1.354734 -1.354735
158.200000 -1.354734 -1.354735
158.250000 -1.354734 -1.354735
158.300000 -1.354734 -1.354735
158.350000 -1.354734 -1.354735
158.400000 -1.354734 -1.354735
158.450000 -1.354735 -1.354735
158.500000 -1.354735 -1.354735
158.550000 -1.354735 -1.354735
158.600000 -1.354735 -1.354735
158.650000 -1.354735 -1.354735
158.700000 -1.354735 -1.354735
158.750000 -1.354736 -1.354735
158.800000 -1.354736 -1.354735
158.850000 -1.354736 -1.354735
158.900000 -1.354736 -1.354735
158.950000 -1.354736 -1.354735
159.000000 -1.354736 -1.354735
159.050000 -1.354736 -1.354735
159.100000 -1.354736 -1.354735
159.150000 -1.354736 -1.354735
159.200000 -1.354736 -1.354735
159.250000 -1.354736 -1.354735
159.300000 -1.354736 -1.354735
159.350000 -1.354736 -1.354735
159.400000 -1.354736 -1.354735
159.450000 -1.354735 -1.354735
159.500000 -1.354735 -1.354735
159.550000 -1.354735 -1.354735
159.600000 -1.354735 -1.354735
159.650000 -1.354735 -1.354735
159.700000 -1.354735 -1.354735
159.750000 -1.354734 -1.354735
159.800000 -1.354734 -1.354735
159.850000 -1.354734 -1.354735
159.900000 -1.354734 -1.354735
159.950000 -1.354734 -1.354735
160.000000 -1.354734 -1.354735
160.050000 -1.354734 -1.354735
160.100000 -1.354734 -1.354735
160.150000 -1.354734 -1.354735
160.200000 -1.354734 -1.354735
160.250000 -1.354734 -1.354735
160.300000 -1.354734 -1.354735
160.350000 -1.354734 -1.354735
160.400000 -1.354734 -1.354735
160.450000 -1.354735 -1.354735
160.500000 -1.354735 -1.354735
160.550000 -1.354735 -1.354735
160.600000 -1.354735 -1.354735
160.650000 -1.354735 -1.354735
160.700000 -1.354735 -1.354735
160.750000 -1.354735 -1.354735
160.800000 -1.354736 -1.354735
160.850000 -1.354736 -1.354735
160.900000 -1.354736 -1.354735
160.950000 -1.354736 -1.354735
161.000000 -1.354736 -1.354735
161.050000 -1.354736 -1.354735
161.100000 -1.354736 -1.354735
161.150000 -1.354736 -1.354735
161.200000 -1.354736 -1.354735
161.250000 -1.354736 -1.354735
161.300000 -1.354736 -1.354735
161.350000 -1.354736 -1.354735
161.400000 -1.354736 -1.354735
161.450000 -1.354735 -1.354735
161.500000 -1.354735 -1.354735
161.550000 -1.354735 -1.354735
161.600000 -1.354735 -1.354735
161.650000 -1.354735 -1.354735
161.700000 -1.354735 -1.354735
161.750000 -1.354735 -1.354735
161.800000 -1.354735 -1.354735
161.850000 -1.354734 -1.354735
161.900000 -1.354734 -1.354735
161.950000 -1.354734 -1.354735
162.000000 -1.354734 -1.354735
162.050000 -1.354734 -1.354735
162.100000 -1.354734 -1.354735
162.150000 -1.354734 -1.354735
162.200000 -1.354734 -1.354735
162.250000 -1.354734 -1.354735
162.300000 -1.354734 -1.354735
162.350000 -1.354734 -1.354735
162.400000 -1.354734 -1.354735
162.450000 -1.354735 -1.354735
162.500000 -1.354735 -1.354735
162.550000 -1.354735 -1.354735
162.600000 -1.354735 -1.354735
162.650000 -1.354735 -1.354735
162.700000 -1.354735 -1.354735
162.750000 -1.354735 -1.354735
162.800000 -1.354735 -1.354735
162.850000 -1.354736 -1.354735
162.900000 -1.354736 -1.354735
162.950000 -1.354736 -1.354735
163.000000 -1.354736 -1.354735
163.050000 -1.354736 -1.354735
163.100000 -1.354736 -1.354735
163.150000 -1.354736 -1.354735
163.200000 -1.354736 -1.354735
163.250000 -1.354736 -1.354735
163.300000 -1.354736 -1.354735
163.350000 -1.354736 -1.354735
163.400000 -1.354736 -1.354735
163.450000 -1.354735 -1.354735
163.500000 -1.354735 -1.354735
163.550000 -1.354735 -1.354735
163.600000 -1.354735 -1.354735
163.650000 -1.354735 -1.354735
163.700000 -1.354735 -1.354735
163.750000 -1.354735 -1.354735
163.800000 -1.354735 -1.354735
163.850000 -1.354735 -1.354735
163.900000 -1.354734 -1.354735
163.950000 -1.354734 -1.354735
164.000000 -1.354734 -1.354735
164.050000 -1.354734 -1.354735
164.100000 -1.354734 -1.354735
164.150000 -1.354734 -1.354735
164.200000 -1.354734 -1.354735
164.250000 -1.354734 -1.354735
164.300000 -1.354734 -1.354735
164.350000 -1.354734 -1.354735
164.400000 -1.354734 -1.354735
164.450000 -1.354735 -1.354735
164.500000 -1.354735 -1.354735
164.550000 -1.354735 -1.354735
164.600000 -1.354735 -1.354735
164.650000 -1.354735 -1.354735
164.700000 -1.354735 -1.354735
164.750000 -1.354735 -1.354735
164.800000 -1.354735 -1.354735
164.850000 -1.354735 -1.354735
164.900000 -1.354735 -1.354735
164.950000 -1.354736 -1.354735
165.000000 -1.354736 -1.354735
165.050000 -1.354736 -1.354735
165.100000 -1.354736 -1.354735
165.150000 -1.354736 -1.354735
165.200000 -1.354736 -1.354735
165.250000 -1.354736 -1.354735
165.300000 -1.354736 -1.354735
165.350000 -1.354736 -1.354735
165.400000 -1.354736 -1.354735
165.450000 -1.354735 -1.354735
165.500000 -1.354735 -1.354735
165.550000 -1.354735 -1.354735
165.600000 -1.354735 -1.354735
165.650000 -1.354735 -1.354735
165.700000 -1.354735 -1.354735
165.750000 -1.354735 -1.354735
165.800000 -1.354735 -1.354735
165.850000 -1.354735 -1.354735
165.900000 -1.354735 -1.354735
165.950000 -1.354735 -1.354735
166.000000 -1.354734 -1.354735
166.050000 -1.354734 -1.354735
166.100000 -1.354734 -1.354735
166.150000 -1.354734 -1.354735
166.200000 -1.354734 -1.354735
166.250000 -1.354734 -1.354735
166.300000 -1.354734 -1.354735
166.350000 -1.354734 -1.354735
166.400000 -1.354735 -1.354735
166.450000 -1.354735 -1.354735
166.500000 -1.354735 -1.354735
166.550000 -1.354735 -1.354735
166.600000 -1.354735 -1.354735
166.650000 -1.354735 -1.354735
166.700000 -1.354735 -1.354735
166.750000 -1.354735 -1.354735
166.800000 -1.354735 -1.354735
166.850000 -1.354735 -1.354735
166.900000 -1.354735 -1.354735
166.950000 -1.354735 -1.354735
167.000000 -1.354735 -1.354735
167.050000 -1.354736 -1.354735
167.100000 -1.354736 -1.354735
167.150000 -1.354736 -1.354735
167.200000 -1.354736 -1.354735
167.250000 -1.354736 -1.354735
167.300000 -1.354736 -1.354735
167.350000 -1.354736 -1.354735
167.400000 -1.354735 -1.354735
167.450000 -1.354735 -1.354735
167.500000 -1.354735 -1.354735
167.550000 -1.354735 -1.354735
167.600000 -1.354735 -1.354735
167.650000 -1.354735 -1.354735
167.700000 -1.354735 -1.354735
167.750000 -1.354735 -1.354735
167.800000 -1.354735 -1.354735
167.850000 -1.354735 -1.354735
167.900000 -1.354735 -1.354735
167.950000 -1.354735 -1.354735
168.000000 -1.354735 -1.354735
168.050000 -1.354735 -1.354735
168.100000 -1.354735 -1.354735
168.150000 -1.354735 -1.354735
168.200000 -1.354734 -1.354735
168.250000 -1.354735 -1.354735
168.300000 -1.354735 -1.354735
168.350000 -1.354735 -1.354735
168.400000 -1.354735 -1.354735
168.450000 -1.354735 -1.354735
168.500000 -1.354735 -1.354735
168.550000 -1.354735 -1.354735
168.600000 -1.354735 -1.354735
168.650000 -1.354735 -1.354735
168.700000 -1.354735 -1.354735
168.750000 -1.354735 -1.354735
168.800000 -1.354735 -1.354735
168.850000 -1.354735 -1.354735
168.900000 -1.354735 -1.354735
168.950000 -1.354735 -1.354735
169.000000 -1.354735 -1.354735
169.050000 -1.354735 -1.354735
169.100000 -1.354735 -1.354735
169.150000 -1.354735 -1.354735
169.200000 -1.354735 -1.354735
169.250000 -1.354735 -1.354735
169.300000 -1.354735 -1.354735
169.350000 -1.354735 -1.354735
169.400000 -1.354735 -1.354735
169.450000 -1.354735 -1.354735
169.500000 -1.354735 -1.354735
169.550000 -1.354735 -1.354735
169.600000 -1.354735 -1.354735
169.650000 -1.354735 -1.354735
169.700000 -1.354735 -1.354735
169.750000 -1.354735 -1.354735
169.800000 -1.354735 -1.354735
169.850000 -1.354735 -1.354735
169.900000 -1.354735 -1.354735
169.950000 -1.354735 -1.354735
170.000000 -1.354735 -1.354735
170.050000 -1.354735 -1.354735
170.100000 -1.354735 -1.354735
170.150000 -1.354735 -1.354735
170.200000 -1.354735 -1.354735
170.250000 -1.354735 -1.354735
170.300000 -1.354735 -1.354735
170.350000 -1.354735 -1.354735
170.400000 -1.354735 -1.354735
170.450000 -1.354735 -1.354735
170.500000 -1.354735 -1.354735
170.550000 -1.354735 -1.354735
170.600000 -1.354735 -1.354735
170.650000 -1.354735 -1.354735
170.700000 -1.354735 -1.354735
170.750000 -1.354735 -1.354735
170.800000 -1.354735 -1.354735
170.850000 -1.354735 -1.354735
170.900000 -1.354735 -1.354735
170.950000 -1.354735 -1.354735
171.000000 -1.354735 -1.354735
171.050000 -1.354735 -1.354735
171.100000 -1.354735 -1.354735
171.150000 -1.354735 -1.354735
171.200000 -1.354735 -1.354735
171.250000 -1.354735 -1.354735
171.300000 -1.354735 -1.354735
171.350000 -1.354735 -1.354735
171.400000 -1.354735 -1.354735
171.450000 -1.354735 -1.354735
171.500000 -1.354735 -1.354735
171.550000 -1.354735 -1.354735
171.600000 -1.354735 -1.354735
171.650000 -1.354735 -1.354735
171.700000 -1.354735 -1.354735
171.750000 -1.354735 -1.354735
171.800000 -1.354735 -1.354735
171.850000 -1.354735 -1.354735
171.900000 -1.354735 -1.354735
171.950000 -1.354735 -1.354735
172.000000 -1.354735 -1.354735
172.050000 -1.354735 -1.354735
172.100000 -1.354735 -1.354735
172.150000 -1.354735 -1.354735
172.200000 -1.354735 -1.354735
172.250000 -1.354735 -1.354735
172.300000 -1.354735 -1.354735
172.350000 -1.354735 -1.354735
172.400000 -1.354735 -1.354735
172.450000 -1.354735 -1.354735
172.500000 -1.354735 -1.354735
172.550000 -1.354735 -1.354735
172.600000 -1.354735 -1.354735
172.650000 -1.354735 -1.354735
172.700000 -1.354735 -1.354735
172.750000 -1.354735 -1.354735
172.800000 -1.354735 -1.354735
172.850000 -1.354735 -1.354735
172.900000 -1.354735 -1.354735
172.950000 -1.354735 -1.354735
173.000000 -1.354735 -1.354735
173.050000 -1.354735 -1.354735
173.100000 -1.354735 -1.354735
173.150000 -1.354735 -1.354735
173.200000 -1.354735 -1.354735
173.250000 -1.354735 -1.354735
173.300000 -1.354735 -1.354735
173.350000 -1.354735 -1.354735
173.400000 -1.354735 -1.354735
173.450000 -1.354735 -1.354735
173.500000 -1.354735 -1.354735
173.550000 -1.354735 -1.354735
173.600000 -1.354735 -1.354735
173.650000 -1.354735 -1.354735
173.700000 -1.354735 -1.354735
173.750000 -1.354735 -1.354735
173.800000 -1.354735 -1.354735
173.850000 -1.354735 -1.354735
173.900000 -1.354735 -1.354735
173.950000 -1.354735 -1.354735
174.000000 -1.354735 -1.354735
174.050000 -1.354735 -1.354735
174.100000 -1.354735 -1.354735
174.150000 -1.354735 -1.354735
174.200000 -1.354735 -1.354735
174.250000 -1.354735 -1.354735
174.300000 -1.354735 -1.354735
174.350000 -1.354735 -1.354735
174.400000 -1.354735 -1.354735
174.450000 -1.354735 -1.354735
174.500000 -1.354735 -1.354735
174.550000 -1.354735 -1.354735
174.600000 -1.354735 -1.354735
174.650000 -1.354735 -1.354735
174.700000 -1.354735 -1.354735
174.750000 -1.354735 -1.354735
174.800000 -1.354735 -1.354735
174.850000 -1.354735 -1.354735
174.900000 -1.354735 -1.354735
174.950000 -1.354735 -1.354735
175.000000 -1.354735 -1.354735
175.050000 -1.354735 -1.354735
175.100000 -1.354735 -1.354735
175.150000 -1.354735 -1.354735
175.200000 -1.354735 -1.354735
175.250000 -1.354735 -1.354735
175.300000 -1.354735 -1.354735
175.350000 -1.354735 -1.354735
175.400000 -1.354735 -1.354735
175.450000 -1.354735 -1.354735
175.500000 -1.354735 -1.354735
175.550000 -1.354735 -1.354735
175.600000 -1.354735 -1.354735
175.650000 -1.354735 -1.354735
175.700000 -1.354735 -1.354735
175.750000 -1.354735 -1.354735
175.800000 -1.354735 -1.354735
175.850000 -1.354735 -1.354735
175.900000 -1.354735 -1.354735
175.950000 -1.354735 -1.354735
176.000000 -1.354735 -1.354735
176.050000 -1.354735 -1.354735
176.100000 -1.354735 -1.354735
176.150000 -1.354735 -1.354735
176.200000 -1.354735 -1.354735
176.250000 -1.354735 -1.354735
176.300000 -1.354735 -1.354735
176.350000 -1.354735 -1.354735
176.400000 -1.354735 -1.354735
176.450000 -1.354735 -1.354735
176.500000 -1.354735 -1.354735
176.550000 -1.354735 -1.354735
176.600000 -1.354735 -1.354735
176.650000 -1.354735 -1.354735
176.700000 -1.354735 -1.354735
176.750000 -1.354735 -1.354735
176.800000 -1.354735 -1.354735
176.850000 -1.354735 -1.354735
176.900000 -1.354735 -1.354735
176.950000 -1.354735 -1.354735
177.000000 -1.354735 -1.354735
177.050000 -1.354735 -1.354735
177.100000 -1.354735 -1.354735
177.150000 -1.354735 -1.354735
177.200000 -1.354735 -1.354735
177.250000 -1.354735 -1.354735
177.300000 -1.354735 -1.354735
177.350000 -1.354735 -1.354735
177.400000 -1.354735 -1.354735
177.450000 -1.354735 -1.354735
177.500000 -1.354735 -1.354735
177.550000 -1.354735 -1.354735
177.600000 -1.354735 -1.354735
177.650000 -1.354735 -1.354735
177.700000 -1.354735 -1.354735
177.750000 -1.354735 -1.354735
177.800000 -1.354735 -1.354735
177.850000 -1.354735 -1.354735
177.900000 -1.354735 -1.354735
177.950000 -1.354735 -1.354735
178.000000 -1.354735 -1.354735
178.050000 -1.354735 -1.354735
178.100000 -1.354735 -1.354735
178.150000 -1.354735 -1.354735
178.200000 -1.354735 -1.354735
178.250000 -1.354735 -1.354735
178.300000 -1.354735 -1.354735
178.350000 -1.354735 -1.354735
178.400000 -1.354735 -1.354735
178.450000 -1.354735 -1.354735
178.500000 -1.354735 -1.354735
178.550000 -1.354735 -1.354735
178.600000 -1.354735 -1.354735
178.650000 -1.354735 -1.354735
178.700000 -1.354735 -1.354735
178.750000 -1.354735 -1.354735
178.800000 -1.354735 -1.354735
178.850000 -1.354735 -1.354735
178.900000 -1.354735 -1.354735
178.950000 -1.354735 -1.354735
179.000000 -1.354735 -1.354735
179.050000 -1.354735 -1.354735
179.100000 -1.354735 -1.354735
179.150000 -1.354735 -1.354735
179.200000 -1.354735 -1.354735
179.250000 -1.354735 -1.354735
179.300000 -1.354735 -1.354735
179.350000 -1.354735 -1.354735
179.400000 -1.354735 -1.354735
179.450000 -1.354735 -1.354735
179.500000 -1.354735 -1.354735
179.550000 -1.354735 -1.354735
179.600000 -1.354735 -1.354735
179.650000 -1.354735 -1.354735
179.700000 -1.354735 -1.354735
179.750000 -1.354735 -1.354735
179.800000 -1.354735 -1.354735
179.850000 -1.354735 -1.354735
179.900000 -1.354735 -1.354735
179.950000 -1.354735 -1.354735
180.000000 -1.354735 -1.354735
180.050000 -1.354735 -1.354735
180.100000 -1.354735 -1.354735
180.150000 -1.354735 -1.354735
180.200000 -1.354735 -1.354735
180.250000 -1.354735 -1.354735
180.300000 -1.354735 -1.354735
180.350000 -1.354735 -1.354735
180.400000 -1.354735 -1.354735
180.450000 -1.354735 -1.354735
180.500000 -1.354735 -1.354735
180.550000 -1.354735 -1.354735
180.600000 -1.354735 -1.354735
180.650000 -1.354735 -1.354735
180.700000 -1.354735 -1.354735
180.750000 -1.354735 -1.354735
180.800000 -1.354735 -1.354735
180.850000 -1.354735 -1.354735
180.900000 -1.354735 -1.354735
180.950000 -1.354735 -1.354735
181.000000 -1.354735 -1.354735
181.050000 -1.354735 -1.354735
181.100000 -1.354735 -1.354735
181.150000 -1.354735 -1.354735
181.200000 -1.354735 -1.354735
181.250000 -1.354735 -1.354735
181.300000 -1.354735 -1.354735
181.350000 -1.354735 -1.354735
181.400000 -1.354735 -1.354735
181.450000 -1.354735 -1.354735
181.500000 -1.354735 -1.354735
181.550000 -1.354735 -1.354735
181.600000 -1.354735 -1.354735
181.650000 -1.354735 -1.354735
181.700000 -1.354735 -1.354735
181.750000 -1.354735 -1.354735
181.800000 -1.354735 -1.354735
181.850000 -1.354735 -1.354735
181.900000 -1.354735 -1.354735
181.950000 -1.354735 -1.354735
182.000000 -1.354735 -1.354735
182.050000 -1.354735 -1.354735
182.100000 -1.354735 -1.354735
182.150000 -1.354735 -1.354735
182.200000 -1.354735 -1.354735
182.250000 -1.354735 -1.354735
182.300000 -1.354735 -1.354735
182.350000 -1.354735 -1.354735
182.400000 -1.354735 -1.354735
182.450000 -1.354735 -1.354735
182.500000 -1.354735 -1.354735
182.550000 -1.354735 -1.354735
182.600000 -1.354735 -1.354735
182.650000 -1.354735 -1.354735
182.700000 -1.354735 -1.354735
182.750000 -1.354735 -1.354735
182.800000 -1.354735 -1.354735
182.850000 -1.354735 -1.354735
182.900000 -1.354735 -1.354735
182.950000 -1.354735 -1.354735
183.000000 -1.354735 -1.354735
183.050000 -1.354735 -1.354735
183.100000 -1.354735 -1.354735
183.150000 -1.354735 -1.354735
183.200000 -1.354735 -1.354735
183.250000 -1.354735 -1.354735
183.300000 -1.354735 -1.354735
183.350000 -1.354735 -1.354735
183.400000 -1.354735 -1.354735
183.450000 -1.354735 -1.354735
183.500000 -1.354735 -1.354735
183.550000 -1.354735 -1.354735
183.600000 -1.354735 -1.354735
183.650000 -1.354735 -1.354735
183.700000 -1.354735 -1.354735
183.750000 -1.354735 -1.354735
183.800000 -1.354735 -1.354735
183.850000 -1.354735 -1.354735
183.900000 -1.354735 -1.354735
183.950000 -1.354735 -1.354735
184.000000 -1.354735 -1.354735
184.050000 -1.354735 -1.354735
184.100000 -1.354735 -1.354735
184.150000 -1.354735 -1.354735
184.200000 -1.354735 -1.354735
184.250000 -1.354735 -1.354735
184.300000 -1.354735 -1.354735
184.350000 -1.354735 -1.354735
184.400000 -1.354735 -1.354735
184.450000 -1.354735 -1.354735
184.500000 -1.354735 -1.354735
184.550000 -1.354735 -1.354735
184.600000 -1.354735 -1.354735
184.650000 -1.354735 -1.354735
184.700000 -1.354735 -1.354735
184.750000 -1.354735 -1.354735
184.800000 -1.354735 -1.354735
184.850000 -1.354735 -1.354735
184.900000 -1.354735 -1.354735
184.950000 -1.354735 -1.354735
185.000000 -1.354735 -1.354735
185.050000 -1.354735 -1.354735
185.100000 -1.354735 -1.354735
185.150000 -1.354735 -1.354735
185.200000 -1.354735 -1.354735
185.250000 -1.354735 -1.354735
185.300000 -1.354735 -1.354735
185.350000 -1.354735 -1.354735
185.400000 -1.354735 -1.354735
185.450000 -1.354735 -1.354735
185.500000 -1.354735 -1.354735
185.550000 -1.354735 -1.354735
185.600000 -1.354735 -1.354735
185.650000 -1.354735 -1.354735
185.700000 -1.354735 -1.354735
185.750000 -1.354735 -1.354735
185.800000 -1.354735 -1.354735
185.850000 -1.354735 -1.354735
185.900000 -1.354735 -1.354735
185.950000 -1.354735 -1.354735
186.000000 -1.354735 -1.354735
186.050000 -1.354735 -1.354735
186.100000 -1.354735 -1.354735
186.150000 -1.354735 -1.354735
186.200000 -1.354735 -1.354735
186.250000 -1.354735 -1.354735
186.300000 -1.354735 -1.354735
186.350000 -1.354735 -1.354735
186.400000 -1.354735 -1.354735
186.450000 -1.354735 -1.354735
186.500000 -1.354735 -1.354735
186.550000 -1.354735 -1.354735
186.600000 -1.354735 -1.354735
186.650000 -1.354735 -1.354735
186.700000 -1.354735 -1.354735
186.750000 -1.354735 -1.354735
186.800000 -1.354735 -1.354735
186.850000 -1.354735 -1.354735
186.900000 -1.354735 -1.354735
186.950000 -1.354735 -1.354735
