fit_time[ns] Functional_fit[mV] Thermal_fit[mV]
3.650000 18.642780 18.237127
3.700000 18.473654 17.837998
3.750000 18.295325 17.447458
3.800000 18.102525 17.065315
3.850000 17.890599 16.691378
3.900000 17.655612 16.325464
3.950000 17.394436 15.967392
4.000000 17.104814 15.616987
4.050000 16.785404 15.274077
4.100000 16.435798 14.938495
4.150000 16.056523 14.610077
4.200000 15.649009 14.288664
4.250000 15.215549 13.974101
4.300000 14.759225 13.666233
4.350000 14.283823 13.364914
4.400000 13.793730 13.069999
4.450000 13.293813 12.781344
4.500000 12.789298 12.498813
4.550000 12.285627 12.222270
4.600000 11.788321 11.951583
4.650000 11.302841 11.686623
4.700000 10.834450 11.427264
4.750000 10.388080 11.173384
4.800000 9.968212 10.924862
4.850000 9.578764 10.681580
4.900000 9.223002 10.443424
4.950000 8.903454 10.210283
5.000000 8.621860 9.982046
5.050000 8.379129 9.758607
5.100000 8.175321 9.539861
5.150000 8.009652 9.325706
5.200000 7.880521 9.116043
5.250000 7.785548 8.910774
5.300000 7.721644 8.709803
5.350000 7.685088 8.513037
5.400000 7.671623 8.320386
5.450000 7.676562 8.131761
5.500000 7.694910 7.947074
5.550000 7.721483 7.766242
5.600000 7.751038 7.589179
5.650000 7.778401 7.415806
5.700000 7.798590 7.246044
5.750000 7.806937 7.079814
5.800000 7.799198 6.917041
5.850000 7.771648 6.757650
5.900000 7.721174 6.601569
5.950000 7.645336 6.448728
6.000000 7.542426 6.299057
6.050000 7.411497 6.152489
6.100000 7.252382 6.008956
6.150000 7.065685 5.868395
6.200000 6.852761 5.730741
6.250000 6.615673 5.595934
6.300000 6.357130 5.463913
6.350000 6.080419 5.334618
6.400000 5.789311 5.207991
6.450000 5.487967 5.083977
6.500000 5.180825 4.962518
6.550000 4.872492 4.843563
6.600000 4.567623 4.727056
6.650000 4.270807 4.612947
6.700000 3.986452 4.501186
6.750000 3.718677 4.391721
6.800000 3.471211 4.284506
6.850000 3.247304 4.179492
6.900000 3.049649 4.076633
6.950000 2.880322 3.975884
7.000000 2.740732 3.877200
7.050000 2.631591 3.780538
7.100000 2.552908 3.685856
7.150000 2.503984 3.593112
7.200000 2.483443 3.502265
7.250000 2.489269 3.413276
7.300000 2.518858 3.326105
7.350000 2.569089 3.240715
7.400000 2.636405 3.157068
7.450000 2.716903 3.075128
7.500000 2.806433 2.994860
7.550000 2.900700 2.916228
7.600000 2.995374 2.839198
7.650000 3.086194 2.763737
7.700000 3.169072 2.689812
7.750000 3.240191 2.617392
7.800000 3.296099 2.546444
7.850000 3.333784 2.476938
7.900000 3.350752 2.408845
7.950000 3.345073 2.342135
8.000000 3.315434 2.276780
8.050000 3.261154 2.212750
8.100000 3.182203 2.150019
8.150000 3.079191 2.088560
8.200000 2.953350 2.028347
8.250000 2.806493 1.969353
8.300000 2.640967 1.911554
8.350000 2.459588 1.854924
8.400000 2.265566 1.799440
8.450000 2.062425 1.745079
8.500000 1.853907 1.691816
8.550000 1.643882 1.639629
8.600000 1.436246 1.588497
8.650000 1.234830 1.538396
8.700000 1.043300 1.489307
8.750000 0.865072 1.441208
8.800000 0.703223 1.394079
8.850000 0.560427 1.347900
8.900000 0.438883 1.302652
8.950000 0.340269 1.258315
9.000000 0.265707 1.214870
9.050000 0.215734 1.172300
9.100000 0.190300 1.130586
9.150000 0.188767 1.089712
9.200000 0.209937 1.049659
9.250000 0.252083 1.010410
9.300000 0.312995 0.971951
9.350000 0.390038 0.934263
9.400000 0.480225 0.897333
9.450000 0.580290 0.861143
9.500000 0.686769 0.825679
9.550000 0.796093 0.790926
9.600000 0.904671 0.756870
9.650000 1.008980 0.723497
9.700000 1.105653 0.690792
9.750000 1.191559 0.658742
9.800000 1.263876 0.627333
9.850000 1.320161 0.596553
9.900000 1.358404 0.566389
9.950000 1.377074 0.536827
10.000000 1.375152 0.507857
10.050000 1.352153 0.479466
10.100000 1.308127 0.451642
10.150000 1.243663 0.424374
10.200000 1.159857 0.397650
10.250000 1.058290 0.371459
10.300000 0.940979 0.345791
10.350000 0.810323 0.320635
10.400000 0.669044 0.295981
10.450000 0.520111 0.271818
10.500000 0.366670 0.248136
10.550000 0.211959 0.224926
10.600000 0.059231 0.202179
10.650000 -0.088328 0.179884
10.700000 -0.227680 0.158033
10.750000 -0.356002 0.136617
10.800000 -0.470761 0.115627
10.850000 -0.569771 0.095054
10.900000 -0.651244 0.074890
10.950000 -0.713832 0.055127
11.000000 -0.756653 0.035757
11.050000 -0.779314 0.016771
11.100000 -0.781912 -0.001838
11.150000 -0.765030 -0.020077
11.200000 -0.729717 -0.037955
11.250000 -0.677458 -0.055477
11.300000 -0.610134 -0.072653
11.350000 -0.529973 -0.089487
11.400000 -0.439490 -0.105988
11.450000 -0.341424 -0.122162
11.500000 -0.238668 -0.138016
11.550000 -0.134196 -0.153555
11.600000 -0.030989 -0.168787
11.650000 0.068035 -0.183717
11.700000 0.160101 -0.198352
11.750000 0.242632 -0.212697
11.800000 0.313323 -0.226758
11.850000 0.370186 -0.240542
11.900000 0.411600 -0.254053
11.950000 0.436347 -0.267297
12.000000 0.443638 -0.280279
12.050000 0.433131 -0.293004
12.100000 0.404929 -0.305479
12.150000 0.359580 -0.317707
12.200000 0.298055 -0.329693
12.250000 0.221723 -0.341443
12.300000 0.132309 -0.352962
12.350000 0.031855 -0.364253
12.400000 -0.077341 -0.375321
12.450000 -0.192779 -0.386171
12.500000 -0.311822 -0.396808
12.550000 -0.431764 -0.407234
12.600000 -0.549895 -0.417456
12.650000 -0.663570 -0.427476
12.700000 -0.770274 -0.437298
12.750000 -0.867679 -0.446927
12.800000 -0.953707 -0.456367
12.850000 -1.026573 -0.465621
12.900000 -1.084828 -0.474693
12.950000 -1.127394 -0.483586
13.000000 -1.153584 -0.492305
13.050000 -1.163119 -0.500852
13.100000 -1.156129 -0.509231
13.150000 -1.133144 -0.517446
13.200000 -1.095084 -0.525499
13.250000 -1.043227 -0.533393
13.300000 -0.979173 -0.541133
13.350000 -0.904810 -0.548721
13.400000 -0.822256 -0.556160
13.450000 -0.733808 -0.563453
13.500000 -0.641886 -0.570603
13.550000 -0.548969 -0.577612
13.600000 -0.457533 -0.584484
13.650000 -0.369994 -0.591221
13.700000 -0.288645 -0.597827
13.750000 -0.215602 -0.604302
13.800000 -0.152754 -0.610651
13.850000 -0.101716 -0.616876
13.900000 -0.063797 -0.622978
13.950000 -0.039964 -0.628961
14.000000 -0.030826 -0.634827
14.050000 -0.036620 -0.640578
14.100000 -0.057211 -0.646216
14.150000 -0.092095 -0.651744
14.200000 -0.140419 -0.657164
14.250000 -0.201001 -0.662478
14.300000 -0.272367 -0.667688
14.350000 -0.352785 -0.672796
14.400000 -0.440316 -0.677804
14.450000 -0.532859 -0.682714
14.500000 -0.628204 -0.687529
14.550000 -0.724094 -0.692249
14.600000 -0.818273 -0.696877
14.650000 -0.908547 -0.701415
14.700000 -0.992836 -0.705864
14.750000 -1.069226 -0.710226
14.800000 -1.136010 -0.714503
14.850000 -1.191735 -0.718697
14.900000 -1.235231 -0.722808
14.950000 -1.265636 -0.726840
15.000000 -1.282422 -0.730793
15.050000 -1.285396 -0.734668
15.100000 -1.274707 -0.738469
15.150000 -1.250839 -0.742195
15.200000 -1.214594 -0.745848
15.250000 -1.167070 -0.749430
15.300000 -1.109633 -0.752943
15.350000 -1.043879 -0.756387
15.400000 -0.971593 -0.759764
15.450000 -0.894703 -0.763075
15.500000 -0.815230 -0.766322
15.550000 -0.735243 -0.769505
15.600000 -0.656799 -0.772627
15.650000 -0.581897 -0.775688
15.700000 -0.512433 -0.778689
15.750000 -0.450144 -0.781632
15.800000 -0.396576 -0.784517
15.850000 -0.353045 -0.787347
15.900000 -0.320602 -0.790121
15.950000 -0.300018 -0.792842
16.000000 -0.291760 -0.795509
16.050000 -0.295985 -0.798125
16.100000 -0.312541 -0.800690
16.150000 -0.340969 -0.803205
16.200000 -0.380523 -0.805671
16.250000 -0.430185 -0.808089
16.300000 -0.488698 -0.810461
16.350000 -0.554596 -0.812786
16.400000 -0.626241 -0.815066
16.450000 -0.701871 -0.817302
16.500000 -0.779636 -0.819495
16.550000 -0.857653 -0.821645
16.600000 -0.934047 -0.823753
16.650000 -1.006999 -0.825820
16.700000 -1.074791 -0.827848
16.750000 -1.135847 -0.829836
16.800000 -1.188771 -0.831785
16.850000 -1.232380 -0.833697
16.900000 -1.265728 -0.835571
16.950000 -1.288135 -0.837409
17.000000 -1.299191 -0.839212
17.050000 -1.298773 -0.840980
17.100000 -1.287039 -0.842713
17.150000 -1.264426 -0.844413
17.200000 -1.231634 -0.846080
17.250000 -1.189606 -0.847714
17.300000 -1.139506 -0.849317
17.350000 -1.082682 -0.850889
17.400000 -1.020640 -0.852431
17.450000 -0.954995 -0.853943
17.500000 -0.887440 -0.855425
17.550000 -0.819696 -0.856879
17.600000 -0.753474 -0.858304
17.650000 -0.690430 -0.859702
17.700000 -0.632125 -0.861073
17.750000 -0.579991 -0.862418
17.800000 -0.535291 -0.863736
17.850000 -0.499094 -0.865030
17.900000 -0.472247 -0.866298
17.950000 -0.455360 -0.867541
18.000000 -0.448790 -0.868761
18.050000 -0.452634 -0.869957
18.100000 -0.466734 -0.871129
18.150000 -0.490675 -0.872280
18.200000 -0.523807 -0.873408
18.250000 -0.565255 -0.874514
18.300000 -0.613948 -0.875599
18.350000 -0.668644 -0.876662
18.400000 -0.727965 -0.877706
18.450000 -0.790430 -0.878729
18.500000 -0.854495 -0.879732
18.550000 -0.918587 -0.880717
18.600000 -0.981149 -0.881682
18.650000 -1.040675 -0.882628
18.700000 -1.095746 -0.883556
18.750000 -1.145067 -0.884467
18.800000 -1.187496 -0.885360
18.850000 -1.222069 -0.886235
18.900000 -1.248027 -0.887094
18.950000 -1.264830 -0.887936
19.000000 -1.272166 -0.888762
19.050000 -1.269963 -0.889572
19.100000 -1.258381 -0.890366
19.150000 -1.237812 -0.891145
19.200000 -1.208865 -0.891909
19.250000 -1.172351 -0.892659
19.300000 -1.129257 -0.893394
19.350000 -1.080727 -0.894114
19.400000 -1.028026 -0.894821
19.450000 -0.972511 -0.895515
19.500000 -0.915595 -0.896195
19.550000 -0.858712 -0.896861
19.600000 -0.803284 -0.897515
19.650000 -0.750682 -0.898157
19.700000 -0.702194 -0.898786
19.750000 -0.658995 -0.899403
19.800000 -0.622120 -0.900008
19.850000 -0.592434 -0.900602
19.900000 -0.570621 -0.901184
19.950000 -0.557162 -0.901754
20.000000 -0.552327 -0.902314
20.050000 -0.556169 -0.902864
20.100000 -0.568530 -0.903402
20.150000 -0.589039 -0.903930
20.200000 -0.617129 -0.904448
20.250000 -0.652050 -0.904957
20.300000 -0.692890 -0.905455
20.350000 -0.738600 -0.905944
20.400000 -0.788018 -0.906423
20.450000 -0.839904 -0.906893
20.500000 -0.892964 -0.907354
20.550000 -0.945891 -0.907807
20.600000 -0.997390 -0.908250
20.650000 -1.046214 -0.908685
20.700000 -1.091193 -0.909112
20.750000 -1.131262 -0.909531
20.800000 -1.165487 -0.909941
20.850000 -1.193087 -0.910344
20.900000 -1.213451 -0.910739
20.950000 -1.226153 -0.911126
21.000000 -1.230958 -0.911506
21.050000 -1.227829 -0.911879
21.100000 -1.216926 -0.912244
21.150000 -1.198597 -0.912603
21.200000 -1.173372 -0.912954
21.250000 -1.141945 -0.913299
21.300000 -1.105157 -0.913637
21.350000 -1.063974 -0.913969
21.400000 -1.019460 -0.914294
21.450000 -0.972753 -0.914613
21.500000 -0.925034 -0.914926
21.550000 -0.877499 -0.915234
21.600000 -0.831325 -0.915535
21.650000 -0.787649 -0.915830
21.700000 -0.747533 -0.916120
21.750000 -0.711943 -0.916404
21.800000 -0.681721 -0.916683
21.850000 -0.657573 -0.916956
21.900000 -0.640046 -0.917224
21.950000 -0.629518 -0.917487
22.000000 -0.626193 -0.917745
22.050000 -0.630093 -0.917998
22.100000 -0.641062 -0.918246
22.150000 -0.658771 -0.918490
22.200000 -0.682727 -0.918729
22.250000 -0.712288 -0.918963
22.300000 -0.746679 -0.919193
22.350000 -0.785012 -0.919418
22.400000 -0.826311 -0.919639
22.450000 -0.869535 -0.919856
22.500000 -0.913604 -0.920069
22.550000 -0.957428 -0.920277
22.600000 -0.999933 -0.920482
22.650000 -1.040086 -0.920682
22.700000 -1.076923 -0.920879
22.750000 -1.109570 -0.921072
22.800000 -1.137264 -0.921262
22.850000 -1.159370 -0.921448
22.900000 -1.175400 -0.921630
22.950000 -1.185017 -0.921808
23.000000 -1.188046 -0.921984
23.050000 -1.184479 -0.922156
23.100000 -1.174466 -0.922324
23.150000 -1.158319 -0.922490
23.200000 -1.136496 -0.922652
23.250000 -1.109591 -0.922811
23.300000 -1.078320 -0.922968
23.350000 -1.043498 -0.923121
23.400000 -1.006020 -0.923271
23.450000 -0.966840 -0.923418
23.500000 -0.926945 -0.923563
23.550000 -0.887329 -0.923705
23.600000 -0.848971 -0.923844
23.650000 -0.812811 -0.923980
23.700000 -0.779723 -0.924114
23.750000 -0.750501 -0.924246
23.800000 -0.725833 -0.924374
23.850000 -0.706290 -0.924501
23.900000 -0.692312 -0.924625
23.950000 -0.684194 -0.924746
24.000000 -0.682088 -0.924865
24.050000 -0.685993 -0.924982
24.100000 -0.695760 -0.925097
24.150000 -0.711099 -0.925210
24.200000 -0.731583 -0.925320
24.250000 -0.756660 -0.925428
24.300000 -0.785674 -0.925535
24.350000 -0.817875 -0.925639
24.400000 -0.852441 -0.925741
24.450000 -0.888500 -0.925841
24.500000 -0.925150 -0.925940
24.550000 -0.961484 -0.926036
24.600000 -0.996611 -0.926131
24.650000 -1.029676 -0.926224
24.700000 -1.059884 -0.926315
24.750000 -1.086518 -0.926404
24.800000 -1.108956 -0.926492
24.850000 -1.126684 -0.926578
24.900000 -1.139309 -0.926662
24.950000 -1.146569 -0.926745
25.000000 -1.148335 -0.926826
25.050000 -1.144616 -0.926905
25.100000 -1.135555 -0.926983
25.150000 -1.121428 -0.927060
25.200000 -1.102631 -0.927135
25.250000 -1.079672 -0.927209
25.300000 -1.053159 -0.927281
25.350000 -1.023779 -0.927352
25.400000 -0.992287 -0.927422
25.450000 -0.959480 -0.927490
25.500000 -0.926183 -0.927557
25.550000 -0.893222 -0.927623
25.600000 -0.861411 -0.927687
25.650000 -0.831526 -0.927750
25.700000 -0.804289 -0.927812
25.750000 -0.780349 -0.927873
25.800000 -0.760268 -0.927933
25.850000 -0.744510 -0.927991
25.900000 -0.733424 -0.928049
25.950000 -0.727243 -0.928105
26.000000 -0.726077 -0.928160
26.050000 -0.729909 -0.928214
26.100000 -0.738601 -0.928268
26.150000 -0.751896 -0.928320
26.200000 -0.769423 -0.928371
26.250000 -0.790714 -0.928421
26.300000 -0.815210 -0.928470
26.350000 -0.842277 -0.928519
26.400000 -0.871226 -0.928566
26.450000 -0.901325 -0.928613
26.500000 -0.931823 -0.928658
26.550000 -0.961964 -0.928703
26.600000 -0.991008 -0.928747
26.650000 -1.018250 -0.928790
26.700000 -1.043034 -0.928832
26.750000 -1.064772 -0.928873
26.800000 -1.082956 -0.928914
26.850000 -1.097171 -0.928954
26.900000 -1.107104 -0.928993
26.950000 -1.112549 -0.929031
27.000000 -1.113413 -0.929069
27.050000 -1.109718 -0.929106
27.100000 -1.101598 -0.929142
27.150000 -1.089295 -0.929178
27.200000 -1.073151 -0.929213
27.250000 -1.053600 -0.929247
27.300000 -1.031158 -0.929280
27.350000 -1.006406 -0.929313
27.400000 -0.979976 -0.929346
27.450000 -0.952538 -0.929377
27.500000 -0.924777 -0.929408
27.550000 -0.897385 -0.929439
27.600000 -0.871033 -0.929469
27.650000 -0.846364 -0.929498
27.700000 -0.823972 -0.929527
27.750000 -0.804391 -0.929555
27.800000 -0.788077 -0.929583
27.850000 -0.775406 -0.929610
27.900000 -0.766656 -0.929637
27.950000 -0.762010 -0.929663
28.000000 -0.761544 -0.929689
28.050000 -0.765233 -0.929714
28.100000 -0.772949 -0.929738
28.150000 -0.784464 -0.929763
28.200000 -0.799461 -0.929786
28.250000 -0.817538 -0.929810
28.300000 -0.838221 -0.929833
28.350000 -0.860977 -0.929855
28.400000 -0.885225 -0.929877
28.450000 -0.910354 -0.929899
28.500000 -0.935735 -0.929920
28.550000 -0.960741 -0.929941
28.600000 -0.984759 -0.929961
28.650000 -1.007204 -0.929981
28.700000 -1.027537 -0.930001
28.750000 -1.045277 -0.930020
28.800000 -1.060010 -0.930039
28.850000 -1.071399 -0.930057
28.900000 -1.079195 -0.930076
28.950000 -1.083239 -0.930093
29.000000 -1.083465 -0.930111
29.050000 -1.079903 -0.930128
29.100000 -1.072676 -0.930145
29.150000 -1.061996 -0.930162
29.200000 -1.048160 -0.930178
29.250000 -1.031536 -0.930194
29.300000 -1.012563 -0.930209
29.350000 -0.991730 -0.930225
29.400000 -0.969568 -0.930240
29.450000 -0.946638 -0.930254
29.500000 -0.923513 -0.930269
29.550000 -0.900765 -0.930283
29.600000 -0.878954 -0.930297
29.650000 -0.858609 -0.930311
29.700000 -0.840219 -0.930324
29.750000 -0.824222 -0.930337
29.800000 -0.810990 -0.930350
29.850000 -0.800826 -0.930363
29.900000 -0.793952 -0.930375
29.950000 -0.790508 -0.930387
30.000000 -0.790548 -0.930399
30.050000 -0.794041 -0.930411
30.100000 -0.800868 -0.930422
30.150000 -0.810830 -0.930434
30.200000 -0.823655 -0.930445
30.250000 -0.838998 -0.930456
30.300000 -0.856458 -0.930466
30.350000 -0.875587 -0.930477
30.400000 -0.895895 -0.930487
30.450000 -0.916872 -0.930497
30.500000 -0.937993 -0.930507
30.550000 -0.958737 -0.930516
30.600000 -0.978595 -0.930526
30.650000 -0.997085 -0.930535
30.700000 -1.013762 -0.930544
30.750000 -1.028234 -0.930553
30.800000 -1.040161 -0.930562
30.850000 -1.049275 -0.930571
30.900000 -1.055374 -0.930579
30.950000 -1.058337 -0.930588
31.000000 -1.058120 -0.930596
31.050000 -1.054756 -0.930604
31.100000 -1.048358 -0.930612
31.150000 -1.039112 -0.930619
31.200000 -1.027271 -0.930627
31.250000 -1.013153 -0.930634
31.300000 -0.997127 -0.930642
31.350000 -0.979606 -0.930649
31.400000 -0.961036 -0.930656
31.450000 -0.941886 -0.930663
31.500000 -0.922633 -0.930669
31.550000 -0.903754 -0.930676
31.600000 -0.885713 -0.930682
31.650000 -0.868946 -0.930689
31.700000 -0.853856 -0.930695
31.750000 -0.840801 -0.930701
31.800000 -0.830084 -0.930707
31.850000 -0.821949 -0.930713
31.900000 -0.816573 -0.930719
31.950000 -0.814064 -0.930724
32.000000 -0.814458 -0.930730
32.050000 -0.817718 -0.930736
32.100000 -0.823739 -0.930741
32.150000 -0.832346 -0.930746
32.200000 -0.843303 -0.930751
32.250000 -0.856319 -0.930756
32.300000 -0.871054 -0.930761
32.350000 -0.887128 -0.930766
32.400000 -0.904133 -0.930771
32.450000 -0.921640 -0.930776
32.500000 -0.939212 -0.930780
32.550000 -0.956416 -0.930785
32.600000 -0.972830 -0.930789
32.650000 -0.988056 -0.930794
32.700000 -1.001730 -0.930798
32.750000 -1.013528 -0.930802
32.800000 -1.023176 -0.930806
32.850000 -1.030455 -0.930810
32.900000 -1.035208 -0.930814
32.950000 -1.037341 -0.930818
33.000000 -1.036824 -0.930822
33.050000 -1.033696 -0.930826
33.100000 -1.028056 -0.930829
33.150000 -1.020068 -0.930833
33.200000 -1.009950 -0.930836
33.250000 -0.997971 -0.930840
33.300000 -0.984444 -0.930843
33.350000 -0.969718 -0.930846
33.400000 -0.954166 -0.930850
33.450000 -0.938181 -0.930853
33.500000 -0.922161 -0.930856
33.550000 -0.906501 -0.930859
33.600000 -0.891586 -0.930862
33.650000 -0.877777 -0.930865
33.700000 -0.865404 -0.930868
33.750000 -0.854760 -0.930871
33.800000 -0.846092 -0.930874
33.850000 -0.839597 -0.930877
33.900000 -0.835413 -0.930879
33.950000 -0.833625 -0.930882
34.000000 -0.834254 -0.930884
34.050000 -0.837262 -0.930887
34.100000 -0.842554 -0.930890
34.150000 -0.849979 -0.930892
34.200000 -0.859333 -0.930894
34.250000 -0.870368 -0.930897
34.300000 -0.882797 -0.930899
34.350000 -0.896300 -0.930901
34.400000 -0.910533 -0.930904
34.450000 -0.925140 -0.930906
34.500000 -0.939755 -0.930908
34.550000 -0.954019 -0.930910
34.600000 -0.967581 -0.930912
34.650000 -0.980115 -0.930914
34.700000 -0.991320 -0.930916
34.750000 -1.000931 -0.930918
34.800000 -1.008726 -0.930920
34.850000 -1.014530 -0.930922
34.900000 -1.018216 -0.930924
34.950000 -1.019714 -0.930926
35.000000 -1.019006 -0.930927
35.050000 -1.016130 -0.930929
35.100000 -1.011178 -0.930931
35.150000 -1.004289 -0.930932
35.200000 -0.995653 -0.930934
35.250000 -0.985497 -0.930936
35.300000 -0.974088 -0.930937
35.350000 -0.961717 -0.930939
35.400000 -0.948700 -0.930940
35.450000 -0.935363 -0.930942
35.500000 -0.922039 -0.930943
35.550000 -0.909056 -0.930945
35.600000 -0.896732 -0.930946
35.650000 -0.885365 -0.930948
35.700000 -0.875227 -0.930949
35.750000 -0.866557 -0.930950
35.800000 -0.859556 -0.930952
35.850000 -0.854381 -0.930953
35.900000 -0.851144 -0.930954
35.950000 -0.849906 -0.930955
36.000000 -0.850681 -0.930957
36.050000 -0.853430 -0.930958
36.100000 -0.858068 -0.930959
36.150000 -0.864463 -0.930960
36.200000 -0.872441 -0.930961
36.250000 -0.881791 -0.930962
36.300000 -0.892270 -0.930963
36.350000 -0.903607 -0.930965
36.400000 -0.915517 -0.930966
36.450000 -0.927699 -0.930967
36.500000 -0.939851 -0.930968
36.550000 -0.951673 -0.930969
36.600000 -0.962875 -0.930970
36.650000 -0.973188 -0.930970
36.700000 -0.982364 -0.930971
36.750000 -0.990188 -0.930972
36.800000 -0.996478 -0.930973
36.850000 -1.001094 -0.930974
36.900000 -1.003937 -0.930975
36.950000 -1.004953 -0.930976
37.000000 -1.004133 -0.930977
37.050000 -1.001515 -0.930977
37.100000 -0.997179 -0.930978
37.150000 -0.991249 -0.930979
37.200000 -0.983885 -0.930980
37.250000 -0.975283 -0.930981
37.300000 -0.965665 -0.930981
37.350000 -0.955279 -0.930982
37.400000 -0.944387 -0.930983
37.450000 -0.933265 -0.930983
37.500000 -0.922187 -0.930984
37.550000 -0.911428 -0.930985
37.600000 -0.901250 -0.930986
37.650000 -0.891899 -0.930986
37.700000 -0.883598 -0.930987
37.750000 -0.876543 -0.930987
37.800000 -0.870896 -0.930988
37.850000 -0.866784 -0.930989
37.900000 -0.864295 -0.930989
37.950000 -0.863474 -0.930990
38.000000 -0.864328 -0.930990
38.050000 -0.866820 -0.930991
38.100000 -0.870873 -0.930991
38.150000 -0.876373 -0.930992
38.200000 -0.883172 -0.930993
38.250000 -0.891088 -0.930993
38.300000 -0.899918 -0.930994
38.350000 -0.909434 -0.930994
38.400000 -0.919395 -0.930995
38.450000 -0.929552 -0.930995
38.500000 -0.939652 -0.930996
38.550000 -0.949446 -0.930996
38.600000 -0.958695 -0.930996
38.650000 -0.967175 -0.930997
38.700000 -0.974685 -0.930997
38.750000 -0.981049 -0.930998
38.800000 -0.986118 -0.930998
38.850000 -0.989780 -0.930999
38.900000 -0.991958 -0.930999
38.950000 -0.992612 -0.930999
39.000000 -0.991738 -0.931000
39.050000 -0.989373 -0.931000
39.100000 -0.985588 -0.931001
39.150000 -0.980491 -0.931001
39.200000 -0.974218 -0.931001
39.250000 -0.966936 -0.931002
39.300000 -0.958833 -0.931002
39.350000 -0.950117 -0.931002
39.400000 -0.941009 -0.931003
39.450000 -0.931737 -0.931003
39.500000 -0.922531 -0.931003
39.550000 -0.913619 -0.931004
39.600000 -0.905217 -0.931004
39.650000 -0.897528 -0.931004
39.700000 -0.890736 -0.931005
39.750000 -0.885000 -0.931005
39.800000 -0.880453 -0.931005
39.850000 -0.877194 -0.931005
39.900000 -0.875294 -0.931006
39.950000 -0.874786 -0.931006
40.000000 -0.875671 -0.931006
40.050000 -0.877914 -0.931006
40.100000 -0.881447 -0.931007
40.150000 -0.886171 -0.931007
40.200000 -0.891959 -0.931007
40.250000 -0.898658 -0.931007
40.300000 -0.906094 -0.931008
40.350000 -0.914077 -0.931008
40.400000 -0.922406 -0.931008
40.450000 -0.930871 -0.931008
40.500000 -0.939262 -0.931009
40.550000 -0.947372 -0.931009
40.600000 -0.955005 -0.931009
40.650000 -0.961975 -0.931009
40.700000 -0.968118 -0.931009
40.750000 -0.973288 -0.931010
40.800000 -0.977368 -0.931010
40.850000 -0.980266 -0.931010
40.900000 -0.981921 -0.931010
40.950000 -0.982304 -0.931010
41.000000 -0.981418 -0.931011
41.050000 -0.979296 -0.931011
41.100000 -0.976001 -0.931011
41.150000 -0.971625 -0.931011
41.200000 -0.966287 -0.931011
41.250000 -0.960127 -0.931011
41.300000 -0.953304 -0.931012
41.350000 -0.945993 -0.931012
41.400000 -0.938379 -0.931012
41.450000 -0.930653 -0.931012
41.500000 -0.923006 -0.931012
41.550000 -0.915626 -0.931012
41.600000 -0.908694 -0.931013
41.650000 -0.902376 -0.931013
41.700000 -0.896823 -0.931013
41.750000 -0.892164 -0.931013
41.800000 -0.888507 -0.931013
41.850000 -0.885933 -0.931013
41.900000 -0.884495 -0.931013
41.950000 -0.884218 -0.931013
42.000000 -0.885099 -0.931014
42.050000 -0.887106 -0.931014
42.100000 -0.890178 -0.931014
42.150000 -0.894230 -0.931014
42.200000 -0.899153 -0.931014
42.250000 -0.904818 -0.931014
42.300000 -0.911078 -0.931014
42.350000 -0.917773 -0.931014
42.400000 -0.924733 -0.931015
42.450000 -0.931785 -0.931015
42.500000 -0.938754 -0.931015
42.550000 -0.945468 -0.931015
42.600000 -0.951764 -0.931015
42.650000 -0.957490 -0.931015
42.700000 -0.962510 -0.931015
42.750000 -0.966707 -0.931015
42.800000 -0.969985 -0.931015
42.850000 -0.972271 -0.931015
42.900000 -0.973517 -0.931015
42.950000 -0.973703 -0.931016
43.000000 -0.972833 -0.931016
43.050000 -0.970939 -0.931016
43.100000 -0.968077 -0.931016
43.150000 -0.964326 -0.931016
43.200000 -0.959787 -0.931016
43.250000 -0.954579 -0.931016
43.300000 -0.948837 -0.931016
43.350000 -0.942707 -0.931016
43.400000 -0.936345 -0.931016
43.450000 -0.929910 -0.931016
43.500000 -0.923560 -0.931016
43.550000 -0.917453 -0.931017
43.600000 -0.911736 -0.931017
43.650000 -0.906547 -0.931017
43.700000 -0.902010 -0.931017
43.750000 -0.898230 -0.931017
43.800000 -0.895294 -0.931017
43.850000 -0.893267 -0.931017
43.900000 -0.892190 -0.931017
43.950000 -0.892081 -0.931017
44.000000 -0.892935 -0.931017
44.050000 -0.894721 -0.931017
44.100000 -0.897386 -0.931017
44.150000 -0.900858 -0.931017
44.200000 -0.905042 -0.931017
44.250000 -0.909830 -0.931017
44.300000 -0.915096 -0.931017
44.350000 -0.920708 -0.931017
44.400000 -0.926523 -0.931018
44.450000 -0.932395 -0.931018
44.500000 -0.938181 -0.931018
44.550000 -0.943736 -0.931018
44.600000 -0.948927 -0.931018
44.650000 -0.953628 -0.931018
44.700000 -0.957728 -0.931018
44.750000 -0.961132 -0.931018
44.800000 -0.963761 -0.931018
44.850000 -0.965557 -0.931018
44.900000 -0.966485 -0.931018
44.950000 -0.966529 -0.931018
45.000000 -0.965695 -0.931018
45.050000 -0.964013 -0.931018
45.100000 -0.961532 -0.931018
45.150000 -0.958321 -0.931018
45.200000 -0.954464 -0.931018
45.250000 -0.950064 -0.931018
45.300000 -0.945235 -0.931018
45.350000 -0.940098 -0.931018
45.400000 -0.934784 -0.931018
45.450000 -0.929425 -0.931018
45.500000 -0.924155 -0.931018
45.550000 -0.919103 -0.931018
45.600000 -0.914390 -0.931018
45.650000 -0.910131 -0.931019
45.700000 -0.906427 -0.931019
45.750000 -0.903364 -0.931019
45.800000 -0.901011 -0.931019
45.850000 -0.899420 -0.931019
45.900000 -0.898624 -0.931019
45.950000 -0.898635 -0.931019
46.000000 -0.899446 -0.931019
46.050000 -0.901028 -0.931019
46.100000 -0.903336 -0.931019
46.150000 -0.906307 -0.931019
46.200000 -0.909860 -0.931019
46.250000 -0.913903 -0.931019
46.300000 -0.918332 -0.931019
46.350000 -0.923034 -0.931019
46.400000 -0.927890 -0.931019
46.450000 -0.932779 -0.931019
46.500000 -0.937579 -0.931019
46.550000 -0.942174 -0.931019
46.600000 -0.946452 -0.931019
46.650000 -0.950309 -0.931019
46.700000 -0.953656 -0.931019
46.750000 -0.956412 -0.931019
46.800000 -0.958517 -0.931019
46.850000 -0.959924 -0.931019
46.900000 -0.960604 -0.931019
46.950000 -0.960548 -0.931019
47.000000 -0.959763 -0.931019
47.050000 -0.958276 -0.931019
47.100000 -0.956130 -0.931019
47.150000 -0.953383 -0.931019
47.200000 -0.950110 -0.931019
47.250000 -0.946395 -0.931019
47.300000 -0.942334 -0.931019
47.350000 -0.938031 -0.931019
47.400000 -0.933594 -0.931019
47.450000 -0.929135 -0.931019
47.500000 -0.924762 -0.931019
47.550000 -0.920584 -0.931019
47.600000 -0.916702 -0.931019
47.650000 -0.913208 -0.931019
47.700000 -0.910186 -0.931019
47.750000 -0.907706 -0.931019
47.800000 -0.905824 -0.931019
47.850000 -0.904582 -0.931019
47.900000 -0.904003 -0.931019
47.950000 -0.904096 -0.931019
48.000000 -0.904854 -0.931019
48.050000 -0.906250 -0.931020
48.100000 -0.908245 -0.931020
48.150000 -0.910784 -0.931020
48.200000 -0.913799 -0.931020
48.250000 -0.917212 -0.931020
48.300000 -0.920935 -0.931020
48.350000 -0.924872 -0.931020
48.400000 -0.928926 -0.931020
48.450000 -0.932994 -0.931020
48.500000 -0.936976 -0.931020
48.550000 -0.940775 -0.931020
48.600000 -0.944298 -0.931020
48.650000 -0.947461 -0.931020
48.700000 -0.950190 -0.931020
48.750000 -0.952420 -0.931020
48.800000 -0.954102 -0.931020
48.850000 -0.955199 -0.931020
48.900000 -0.955688 -0.931020
48.950000 -0.955565 -0.931020
49.000000 -0.954836 -0.931020
49.050000 -0.953526 -0.931020
49.100000 -0.951673 -0.931020
49.150000 -0.949327 -0.931020
49.200000 -0.946550 -0.931020
49.250000 -0.943415 -0.931020
49.300000 -0.940003 -0.931020
49.350000 -0.936400 -0.931020
49.400000 -0.932697 -0.931020
49.450000 -0.928987 -0.931020
49.500000 -0.925360 -0.931020
49.550000 -0.921907 -0.931020
49.600000 -0.918710 -0.931020
49.650000 -0.915846 -0.931020
49.700000 -0.913383 -0.931020
49.750000 -0.911377 -0.931020
49.800000 -0.909875 -0.931020
49.850000 -0.908909 -0.931020
49.900000 -0.908497 -0.931020
49.950000 -0.908645 -0.931020
50.000000 -0.909344 -0.931020
50.050000 -0.910572 -0.931020
50.100000 -0.912293 -0.931020
50.150000 -0.914461 -0.931020
50.200000 -0.917018 -0.931020
50.250000 -0.919897 -0.931020
50.300000 -0.923024 -0.931020
50.350000 -0.926321 -0.931020
50.400000 -0.929703 -0.931020
50.450000 -0.933087 -0.931020
50.500000 -0.936388 -0.931020
50.550000 -0.939528 -0.931020
50.600000 -0.942428 -0.931020
50.650000 -0.945021 -0.931020
50.700000 -0.947244 -0.931020
50.750000 -0.949046 -0.931020
50.800000 -0.950387 -0.931020
50.850000 -0.951238 -0.931020
50.900000 -0.951581 -0.931020
50.950000 -0.951414 -0.931020
51.000000 -0.950745 -0.931020
51.050000 -0.949596 -0.931020
51.100000 -0.947998 -0.931020
51.150000 -0.945995 -0.931020
51.200000 -0.943642 -0.931020
51.250000 -0.940998 -0.931020
51.300000 -0.938132 -0.931020
51.350000 -0.935116 -0.931020
51.400000 -0.932027 -0.931020
51.450000 -0.928942 -0.931020
51.500000 -0.925935 -0.931020
51.550000 -0.923082 -0.931020
51.600000 -0.920451 -0.931020
51.650000 -0.918105 -0.931020
51.700000 -0.916099 -0.931020
51.750000 -0.914479 -0.931020
51.800000 -0.913283 -0.931020
51.850000 -0.912535 -0.931020
51.900000 -0.912251 -0.931020
51.950000 -0.912433 -0.931020
52.000000 -0.913071 -0.931020
52.050000 -0.914147 -0.931020
52.100000 -0.915630 -0.931020
52.150000 -0.917479 -0.931020
52.200000 -0.919646 -0.931020
52.250000 -0.922073 -0.931020
52.300000 -0.924699 -0.931020
52.350000 -0.927458 -0.931020
52.400000 -0.930279 -0.931020
52.450000 -0.933092 -0.931020
52.500000 -0.935829 -0.931020
52.550000 -0.938422 -0.931020
52.600000 -0.940808 -0.931020
52.650000 -0.942932 -0.931020
52.700000 -0.944741 -0.931020
52.750000 -0.946196 -0.931020
52.800000 -0.947263 -0.931020
52.850000 -0.947918 -0.931020
52.900000 -0.948151 -0.931020
52.950000 -0.947959 -0.931020
53.000000 -0.947350 -0.931020
53.050000 -0.946344 -0.931020
53.100000 -0.944969 -0.931020
53.150000 -0.943262 -0.931020
53.200000 -0.941268 -0.931020
53.250000 -0.939039 -0.931020
53.300000 -0.936633 -0.931020
53.350000 -0.934111 -0.931020
53.400000 -0.931535 -0.931020
53.450000 -0.928969 -0.931020
53.500000 -0.926478 -0.931020
53.550000 -0.924122 -0.931020
53.600000 -0.921958 -0.931020
53.650000 -0.920037 -0.931020
53.700000 -0.918404 -0.931020
53.750000 -0.917098 -0.931020
53.800000 -0.916148 -0.931020
53.850000 -0.915573 -0.931020
53.900000 -0.915385 -0.931020
53.950000 -0.915585 -0.931020
54.000000 -0.916164 -0.931020
54.050000 -0.917104 -0.931020
54.100000 -0.918380 -0.931020
54.150000 -0.919955 -0.931020
54.200000 -0.921790 -0.931020
54.250000 -0.923835 -0.931020
54.300000 -0.926039 -0.931020
54.350000 -0.928347 -0.931020
54.400000 -0.930699 -0.931020
54.450000 -0.933037 -0.931020
54.500000 -0.935304 -0.931020
54.550000 -0.937445 -0.931020
54.600000 -0.939408 -0.931020
54.650000 -0.941146 -0.931020
54.700000 -0.942618 -0.931020
54.750000 -0.943790 -0.931020
54.800000 -0.944636 -0.931020
54.850000 -0.945138 -0.931020
54.900000 -0.945288 -0.931020
54.950000 -0.945083 -0.931020
55.000000 -0.944534 -0.931020
55.050000 -0.943656 -0.931020
55.100000 -0.942474 -0.931020
55.150000 -0.941020 -0.931020
55.200000 -0.939332 -0.931020
55.250000 -0.937455 -0.931020
55.300000 -0.935436 -0.931020
55.350000 -0.933326 -0.931020
55.400000 -0.931179 -0.931020
55.450000 -0.929047 -0.931020
55.500000 -0.926984 -0.931020
55.550000 -0.925039 -0.931020
55.600000 -0.923259 -0.931020
55.650000 -0.921687 -0.931020
55.700000 -0.920360 -0.931020
55.750000 -0.919309 -0.931020
55.800000 -0.918556 -0.931020
55.850000 -0.918117 -0.931020
55.900000 -0.918001 -0.931020
55.950000 -0.918208 -0.931020
56.000000 -0.918729 -0.931020
56.050000 -0.919549 -0.931020
56.100000 -0.920644 -0.931020
56.150000 -0.921985 -0.931020
56.200000 -0.923538 -0.931020
56.250000 -0.925260 -0.931020
56.300000 -0.927110 -0.931020
56.350000 -0.929038 -0.931020
56.400000 -0.930999 -0.931020
56.450000 -0.932942 -0.931020
56.500000 -0.934819 -0.931020
56.550000 -0.936586 -0.931020
56.600000 -0.938199 -0.931020
56.650000 -0.939620 -0.931020
56.700000 -0.940816 -0.931020
56.750000 -0.941760 -0.931020
56.800000 -0.942429 -0.931020
56.850000 -0.942811 -0.931020
56.900000 -0.942898 -0.931020
56.950000 -0.942691 -0.931020
57.000000 -0.942198 -0.931020
57.050000 -0.941434 -0.931020
57.100000 -0.940419 -0.931020
57.150000 -0.939182 -0.931020
57.200000 -0.937754 -0.931020
57.250000 -0.936174 -0.931020
57.300000 -0.934480 -0.931020
57.350000 -0.932717 -0.931020
57.400000 -0.930927 -0.931020
57.450000 -0.929157 -0.931020
57.500000 -0.927448 -0.931020
57.550000 -0.925844 -0.931020
57.600000 -0.924381 -0.931020
57.650000 -0.923096 -0.931020
57.700000 -0.922019 -0.931020
57.750000 -0.921173 -0.931020
57.800000 -0.920578 -0.931020
57.850000 -0.920247 -0.931020
57.900000 -0.920184 -0.931020
57.950000 -0.920389 -0.931020
58.000000 -0.920855 -0.931020
58.050000 -0.921568 -0.931020
58.100000 -0.922508 -0.931020
58.150000 -0.923649 -0.931020
58.200000 -0.924961 -0.931020
58.250000 -0.926411 -0.931020
58.300000 -0.927962 -0.931020
58.350000 -0.929574 -0.931020
58.400000 -0.931207 -0.931020
58.450000 -0.932821 -0.931020
58.500000 -0.934375 -0.931020
58.550000 -0.935832 -0.931020
58.600000 -0.937158 -0.931020
58.650000 -0.938319 -0.931020
58.700000 -0.939290 -0.931020
58.750000 -0.940048 -0.931020
58.800000 -0.940576 -0.931020
58.850000 -0.940863 -0.931020
58.900000 -0.940905 -0.931020
58.950000 -0.940702 -0.931020
59.000000 -0.940262 -0.931020
59.050000 -0.939598 -0.931020
59.100000 -0.938729 -0.931020
59.150000 -0.937677 -0.931020
59.200000 -0.936470 -0.931020
59.250000 -0.935140 -0.931020
59.300000 -0.933720 -0.931020
59.350000 -0.932246 -0.931020
59.400000 -0.930756 -0.931020
59.450000 -0.929286 -0.931020
59.500000 -0.927872 -0.931020
59.550000 -0.926548 -0.931020
59.600000 -0.925348 -0.931020
59.650000 -0.924298 -0.931020
59.700000 -0.923423 -0.931020
59.750000 -0.922745 -0.931020
59.800000 -0.922276 -0.931020
59.850000 -0.922028 -0.931020
59.900000 -0.922004 -0.931020
59.950000 -0.922203 -0.931020
60.000000 -0.922618 -0.931020
60.050000 -0.923236 -0.931020
60.100000 -0.924041 -0.931020
60.150000 -0.925011 -0.931020
60.200000 -0.926120 -0.931020
60.250000 -0.927340 -0.931020
60.300000 -0.928640 -0.931020
60.350000 -0.929987 -0.931020
60.400000 -0.931346 -0.931020
60.450000 -0.932686 -0.931020
60.500000 -0.933972 -0.931020
60.550000 -0.935174 -0.931020
60.600000 -0.936262 -0.931020
60.650000 -0.937210 -0.931020
60.700000 -0.937997 -0.931020
60.750000 -0.938605 -0.931020
60.800000 -0.939020 -0.931020
60.850000 -0.939234 -0.931020
60.900000 -0.939243 -0.931020
60.950000 -0.939049 -0.931020
61.000000 -0.938658 -0.931020
61.050000 -0.938083 -0.931020
61.100000 -0.937338 -0.931020
61.150000 -0.936445 -0.931020
61.200000 -0.935425 -0.931020
61.250000 -0.934306 -0.931020
61.300000 -0.933116 -0.931020
61.350000 -0.931886 -0.931020
61.400000 -0.930645 -0.931020
61.450000 -0.929424 -0.931020
61.500000 -0.928255 -0.931020
61.550000 -0.927164 -0.931020
61.600000 -0.926178 -0.931020
61.650000 -0.925321 -0.931020
61.700000 -0.924613 -0.931020
61.750000 -0.924069 -0.931020
61.800000 -0.923701 -0.931020
61.850000 -0.923518 -0.931020
61.900000 -0.923522 -0.931020
61.950000 -0.923710 -0.931020
62.000000 -0.924078 -0.931020
62.050000 -0.924613 -0.931020
62.100000 -0.925302 -0.931020
62.150000 -0.926125 -0.931020
62.200000 -0.927062 -0.931020
62.250000 -0.928088 -0.931020
62.300000 -0.929177 -0.931020
62.350000 -0.930302 -0.931020
62.400000 -0.931434 -0.931020
62.450000 -0.932545 -0.931020
62.500000 -0.933609 -0.931020
62.550000 -0.934599 -0.931020
62.600000 -0.935492 -0.931020
62.650000 -0.936266 -0.931020
62.700000 -0.936904 -0.931020
62.750000 -0.937390 -0.931020
62.800000 -0.937715 -0.931020
62.850000 -0.937872 -0.931020
62.900000 -0.937858 -0.931020
62.950000 -0.937675 -0.931020
63.000000 -0.937330 -0.931020
63.050000 -0.936832 -0.931020
63.100000 -0.936195 -0.931020
63.150000 -0.935437 -0.931020
63.200000 -0.934576 -0.931020
63.250000 -0.933635 -0.931020
63.300000 -0.932638 -0.931020
63.350000 -0.931611 -0.931020
63.400000 -0.930578 -0.931020
63.450000 -0.929566 -0.931020
63.500000 -0.928599 -0.931020
63.550000 -0.927700 -0.931020
63.600000 -0.926892 -0.931020
63.650000 -0.926192 -0.931020
63.700000 -0.925619 -0.931020
63.750000 -0.925184 -0.931020
63.800000 -0.924897 -0.931020
63.850000 -0.924764 -0.931020
63.900000 -0.924786 -0.931020
63.950000 -0.924962 -0.931020
64.000000 -0.925286 -0.931020
64.050000 -0.925749 -0.931020
64.100000 -0.926338 -0.931020
64.150000 -0.927036 -0.931020
64.200000 -0.927827 -0.931020
64.250000 -0.928690 -0.931020
64.300000 -0.929602 -0.931020
64.350000 -0.930540 -0.931020
64.400000 -0.931482 -0.931020
64.450000 -0.932404 -0.931020
64.500000 -0.933284 -0.931020
64.550000 -0.934099 -0.931020
64.600000 -0.934831 -0.931020
64.650000 -0.935463 -0.931020
64.700000 -0.935978 -0.931020
64.750000 -0.936367 -0.931020
64.800000 -0.936620 -0.931020
64.850000 -0.936733 -0.931020
64.900000 -0.936704 -0.931020
64.950000 -0.936534 -0.931020
65.000000 -0.936230 -0.931020
65.050000 -0.935800 -0.931020
65.100000 -0.935256 -0.931020
65.150000 -0.934613 -0.931020
65.200000 -0.933886 -0.931020
65.250000 -0.933096 -0.931020
65.300000 -0.932261 -0.931020
65.350000 -0.931404 -0.931020
65.400000 -0.930545 -0.931020
65.450000 -0.929705 -0.931020
65.500000 -0.928906 -0.931020
65.550000 -0.928166 -0.931020
65.600000 -0.927503 -0.931020
65.650000 -0.926933 -0.931020
65.700000 -0.926469 -0.931020
65.750000 -0.926122 -0.931020
65.800000 -0.925899 -0.931020
65.850000 -0.925804 -0.931020
65.900000 -0.925839 -0.931020
65.950000 -0.926002 -0.931020
66.000000 -0.926287 -0.931020
66.050000 -0.926686 -0.931020
66.100000 -0.927188 -0.931020
66.150000 -0.927781 -0.931020
66.200000 -0.928448 -0.931020
66.250000 -0.929173 -0.931020
66.300000 -0.929936 -0.931020
66.350000 -0.930719 -0.931020
66.400000 -0.931503 -0.931020
66.450000 -0.932267 -0.931020
66.500000 -0.932994 -0.931020
66.550000 -0.933665 -0.931020
66.600000 -0.934265 -0.931020
66.650000 -0.934780 -0.931020
66.700000 -0.935197 -0.931020
66.750000 -0.935506 -0.931020
66.800000 -0.935703 -0.931020
66.850000 -0.935782 -0.931020
66.900000 -0.935742 -0.931020
66.950000 -0.935587 -0.931020
67.000000 -0.935320 -0.931020
67.050000 -0.934950 -0.931020
67.100000 -0.934485 -0.931020
67.150000 -0.933940 -0.931020
67.200000 -0.933327 -0.931020
67.250000 -0.932663 -0.931020
67.300000 -0.931965 -0.931020
67.350000 -0.931250 -0.931020
67.400000 -0.930535 -0.931020
67.450000 -0.929839 -0.931020
67.500000 -0.929179 -0.931020
67.550000 -0.928570 -0.931020
67.600000 -0.928027 -0.931020
67.650000 -0.927563 -0.931020
67.700000 -0.927188 -0.931020
67.750000 -0.926912 -0.931020
67.800000 -0.926739 -0.931020
67.850000 -0.926674 -0.931020
67.900000 -0.926716 -0.931020
67.950000 -0.926865 -0.931020
68.000000 -0.927115 -0.931020
68.050000 -0.927458 -0.931020
68.100000 -0.927887 -0.931020
68.150000 -0.928389 -0.931020
68.200000 -0.928951 -0.931020
68.250000 -0.929560 -0.931020
68.300000 -0.930199 -0.931020
68.350000 -0.930852 -0.931020
68.400000 -0.931503 -0.931020
68.450000 -0.932137 -0.931020
68.500000 -0.932737 -0.931020
68.550000 -0.933290 -0.931020
68.600000 -0.933781 -0.931020
68.650000 -0.934200 -0.931020
68.700000 -0.934536 -0.931020
68.750000 -0.934783 -0.931020
68.800000 -0.934934 -0.931020
68.850000 -0.934987 -0.931020
68.900000 -0.934942 -0.931020
68.950000 -0.934801 -0.931020
69.000000 -0.934567 -0.931020
69.050000 -0.934248 -0.931020
69.100000 -0.933853 -0.931020
69.150000 -0.933391 -0.931020
69.200000 -0.932874 -0.931020
69.250000 -0.932317 -0.931020
69.300000 -0.931733 -0.931020
69.350000 -0.931136 -0.931020
69.400000 -0.930542 -0.931020
69.450000 -0.929965 -0.931020
69.500000 -0.929420 -0.931020
69.550000 -0.928919 -0.931020
69.600000 -0.928474 -0.931020
69.650000 -0.928097 -0.931020
69.700000 -0.927795 -0.931020
69.750000 -0.927575 -0.931020
69.800000 -0.927443 -0.931020
69.850000 -0.927400 -0.931020
69.900000 -0.927446 -0.931020
69.950000 -0.927581 -0.931020
70.000000 -0.927799 -0.931020
70.050000 -0.928095 -0.931020
70.100000 -0.928460 -0.931020
70.150000 -0.928885 -0.931020
70.200000 -0.929359 -0.931020
70.250000 -0.929870 -0.931020
70.300000 -0.930404 -0.931020
70.350000 -0.930949 -0.931020
70.400000 -0.931490 -0.931020
70.450000 -0.932015 -0.931020
70.500000 -0.932511 -0.931020
70.550000 -0.932965 -0.931020
70.600000 -0.933367 -0.931020
70.650000 -0.933707 -0.931020
70.700000 -0.933979 -0.931020
70.750000 -0.934174 -0.931020
70.800000 -0.934290 -0.931020
70.850000 -0.934324 -0.931020
70.900000 -0.934276 -0.931020
70.950000 -0.934149 -0.931020
71.000000 -0.933945 -0.931020
71.050000 -0.933671 -0.931020
71.100000 -0.933334 -0.931020
71.150000 -0.932943 -0.931020
71.200000 -0.932508 -0.931020
71.250000 -0.932040 -0.931020
71.300000 -0.931551 -0.931020
71.350000 -0.931054 -0.931020
71.400000 -0.930561 -0.931020
71.450000 -0.930083 -0.931020
71.500000 -0.929633 -0.931020
71.550000 -0.929221 -0.931020
71.600000 -0.928857 -0.931020
71.650000 -0.928550 -0.931020
71.700000 -0.928307 -0.931020
71.750000 -0.928133 -0.931020
71.800000 -0.928032 -0.931020
71.850000 -0.928005 -0.931020
71.900000 -0.928054 -0.931020
71.950000 -0.928175 -0.931020
72.000000 -0.928365 -0.931020
72.050000 -0.928619 -0.931020
72.100000 -0.928930 -0.931020
72.150000 -0.929289 -0.931020
72.200000 -0.929689 -0.931020
72.250000 -0.930117 -0.931020
72.300000 -0.930564 -0.931020
72.350000 -0.931018 -0.931020
72.400000 -0.931467 -0.931020
72.450000 -0.931902 -0.931020
72.500000 -0.932311 -0.931020
72.550000 -0.932685 -0.931020
72.600000 -0.933013 -0.931020
72.650000 -0.933290 -0.931020
72.700000 -0.933508 -0.931020
72.750000 -0.933663 -0.931020
72.800000 -0.933751 -0.931020
72.850000 -0.933771 -0.931020
72.900000 -0.933722 -0.931020
72.950000 -0.933608 -0.931020
73.000000 -0.933431 -0.931020
73.050000 -0.933195 -0.931020
73.100000 -0.932909 -0.931020
73.150000 -0.932578 -0.931020
73.200000 -0.932212 -0.931020
73.250000 -0.931819 -0.931020
73.300000 -0.931411 -0.931020
73.350000 -0.930996 -0.931020
73.400000 -0.930587 -0.931020
73.450000 -0.930191 -0.931020
73.500000 -0.929820 -0.931020
73.550000 -0.929481 -0.931020
73.600000 -0.929184 -0.931020
73.650000 -0.928934 -0.931020
73.700000 -0.928739 -0.931020
73.750000 -0.928602 -0.931020
73.800000 -0.928525 -0.931020
73.850000 -0.928511 -0.931020
73.900000 -0.928559 -0.931020
73.950000 -0.928667 -0.931020
74.000000 -0.928832 -0.931020
74.050000 -0.929050 -0.931020
74.100000 -0.929315 -0.931020
74.150000 -0.929619 -0.931020
74.200000 -0.929955 -0.931020
74.250000 -0.930314 -0.931020
74.300000 -0.930687 -0.931020
74.350000 -0.931066 -0.931020
74.400000 -0.931439 -0.931020
74.450000 -0.931799 -0.931020
74.500000 -0.932136 -0.931020
74.550000 -0.932443 -0.931020
74.600000 -0.932712 -0.931020
74.650000 -0.932936 -0.931020
74.700000 -0.933112 -0.931020
74.750000 -0.933234 -0.931020
74.800000 -0.933300 -0.931020
74.850000 -0.933309 -0.931020
74.900000 -0.933262 -0.931020
74.950000 -0.933160 -0.931020
75.000000 -0.933006 -0.931020
75.050000 -0.932804 -0.931020
75.100000 -0.932560 -0.931020
75.150000 -0.932281 -0.931020
75.200000 -0.931972 -0.931020
75.250000 -0.931644 -0.931020
75.300000 -0.931302 -0.931020
75.350000 -0.930957 -0.931020
75.400000 -0.930617 -0.931020
75.450000 -0.930289 -0.931020
75.500000 -0.929983 -0.931020
75.550000 -0.929705 -0.931020
75.600000 -0.929462 -0.931020
75.650000 -0.929260 -0.931020
75.700000 -0.929103 -0.931020
75.750000 -0.928995 -0.931020
75.800000 -0.928938 -0.931020
75.850000 -0.928932 -0.931020
75.900000 -0.928979 -0.931020
75.950000 -0.929075 -0.931020
76.000000 -0.929218 -0.931020
76.050000 -0.929405 -0.931020
76.100000 -0.929630 -0.931020
76.150000 -0.929887 -0.931020
76.200000 -0.930170 -0.931020
76.250000 -0.930471 -0.931020
76.300000 -0.930782 -0.931020
76.350000 -0.931097 -0.931020
76.400000 -0.931408 -0.931020
76.450000 -0.931705 -0.931020
76.500000 -0.931983 -0.931020
76.550000 -0.932235 -0.931020
76.600000 -0.932455 -0.931020
76.650000 -0.932637 -0.931020
76.700000 -0.932777 -0.931020
76.750000 -0.932873 -0.931020
76.800000 -0.932922 -0.931020
76.850000 -0.932924 -0.931020
76.900000 -0.932879 -0.931020
76.950000 -0.932788 -0.931020
77.000000 -0.932655 -0.931020
77.050000 -0.932482 -0.931020
77.100000 -0.932275 -0.931020
77.150000 -0.932039 -0.931020
77.200000 -0.931780 -0.931020
77.250000 -0.931504 -0.931020
77.300000 -0.931219 -0.931020
77.350000 -0.930932 -0.931020
77.400000 -0.930649 -0.931020
77.450000 -0.930378 -0.931020
77.500000 -0.930126 -0.931020
77.550000 -0.929898 -0.931020
77.600000 -0.929699 -0.931020
77.650000 -0.929536 -0.931020
77.700000 -0.929410 -0.931020
77.750000 -0.929325 -0.931020
77.800000 -0.929283 -0.931020
77.850000 -0.929284 -0.931020
77.900000 -0.929328 -0.931020
77.950000 -0.929413 -0.931020
78.000000 -0.929537 -0.931020
78.050000 -0.929697 -0.931020
78.100000 -0.929888 -0.931020
78.150000 -0.930105 -0.931020
78.200000 -0.930342 -0.931020
78.250000 -0.930595 -0.931020
78.300000 -0.930855 -0.931020
78.350000 -0.931117 -0.931020
78.400000 -0.931375 -0.931020
78.450000 -0.931621 -0.931020
78.500000 -0.931850 -0.931020
78.550000 -0.932057 -0.931020
78.600000 -0.932236 -0.931020
78.650000 -0.932383 -0.931020
78.700000 -0.932496 -0.931020
78.750000 -0.932571 -0.931020
78.800000 -0.932607 -0.931020
78.850000 -0.932603 -0.931020
78.900000 -0.932561 -0.931020
78.950000 -0.932481 -0.931020
79.000000 -0.932365 -0.931020
79.050000 -0.932218 -0.931020
79.100000 -0.932042 -0.931020
79.150000 -0.931842 -0.931020
79.200000 -0.931625 -0.931020
79.250000 -0.931394 -0.931020
79.300000 -0.931156 -0.931020
79.350000 -0.930917 -0.931020
79.400000 -0.930682 -0.931020
79.450000 -0.930458 -0.931020
79.500000 -0.930250 -0.931020
79.550000 -0.930063 -0.931020
79.600000 -0.929901 -0.931020
79.650000 -0.929769 -0.931020
79.700000 -0.929668 -0.931020
79.750000 -0.929602 -0.931020
79.800000 -0.929571 -0.931020
79.850000 -0.929577 -0.931020
79.900000 -0.929618 -0.931020
79.950000 -0.929693 -0.931020
80.000000 -0.929800 -0.931020
80.050000 -0.929937 -0.931020
80.100000 -0.930099 -0.931020
80.150000 -0.930282 -0.931020
80.200000 -0.930482 -0.931020
80.250000 -0.930693 -0.931020
80.300000 -0.930910 -0.931020
80.350000 -0.931128 -0.931020
80.400000 -0.931342 -0.931020
80.450000 -0.931545 -0.931020
80.500000 -0.931734 -0.931020
80.550000 -0.931904 -0.931020
80.600000 -0.932050 -0.931020
80.650000 -0.932169 -0.931020
80.700000 -0.932259 -0.931020
80.750000 -0.932317 -0.931020
80.800000 -0.932343 -0.931020
80.850000 -0.932336 -0.931020
80.900000 -0.932297 -0.931020
80.950000 -0.932226 -0.931020
81.000000 -0.932127 -0.931020
81.050000 -0.932000 -0.931020
81.100000 -0.931851 -0.931020
81.150000 -0.931683 -0.931020
81.200000 -0.931500 -0.931020
81.250000 -0.931307 -0.931020
81.300000 -0.931108 -0.931020
81.350000 -0.930909 -0.931020
81.400000 -0.930715 -0.931020
81.450000 -0.930530 -0.931020
81.500000 -0.930358 -0.931020
81.550000 -0.930205 -0.931020
81.600000 -0.930073 -0.931020
81.650000 -0.929966 -0.931020
81.700000 -0.929886 -0.931020
81.750000 -0.929834 -0.931020
81.800000 -0.929812 -0.931020
81.850000 -0.929821 -0.931020
81.900000 -0.929858 -0.931020
81.950000 -0.929924 -0.931020
82.000000 -0.930017 -0.931020
82.050000 -0.930134 -0.931020
82.100000 -0.930271 -0.931020
82.150000 -0.930425 -0.931020
82.200000 -0.930593 -0.931020
82.250000 -0.930770 -0.931020
82.300000 -0.930951 -0.931020
82.350000 -0.931133 -0.931020
82.400000 -0.931310 -0.931020
82.450000 -0.931478 -0.931020
82.500000 -0.931634 -0.931020
82.550000 -0.931772 -0.931020
82.600000 -0.931891 -0.931020
82.650000 -0.931988 -0.931020
82.700000 -0.932059 -0.931020
82.750000 -0.932105 -0.931020
82.800000 -0.932123 -0.931020
82.850000 -0.932114 -0.931020
82.900000 -0.932077 -0.931020
82.950000 -0.932016 -0.931020
83.000000 -0.931930 -0.931020
83.050000 -0.931822 -0.931020
83.100000 -0.931696 -0.931020
83.150000 -0.931554 -0.931020
83.200000 -0.931400 -0.931020
83.250000 -0.931238 -0.931020
83.300000 -0.931072 -0.931020
83.350000 -0.930907 -0.931020
83.400000 -0.930746 -0.931020
83.450000 -0.930593 -0.931020
83.500000 -0.930452 -0.931020
83.550000 -0.930326 -0.931020
83.600000 -0.930219 -0.931020
83.650000 -0.930132 -0.931020
83.700000 -0.930068 -0.931020
83.750000 -0.930029 -0.931020
83.800000 -0.930014 -0.931020
83.850000 -0.930024 -0.931020
83.900000 -0.930058 -0.931020
83.950000 -0.930116 -0.931020
84.000000 -0.930196 -0.931020
84.050000 -0.930295 -0.931020
84.100000 -0.930412 -0.931020
84.150000 -0.930542 -0.931020
84.200000 -0.930683 -0.931020
84.250000 -0.930831 -0.931020
84.300000 -0.930982 -0.931020
84.350000 -0.931133 -0.931020
84.400000 -0.931280 -0.931020
84.450000 -0.931419 -0.931020
84.500000 -0.931546 -0.931020
84.550000 -0.931660 -0.931020
84.600000 -0.931757 -0.931020
84.650000 -0.931835 -0.931020
84.700000 -0.931892 -0.931020
84.750000 -0.931927 -0.931020
84.800000 -0.931939 -0.931020
84.850000 -0.931928 -0.931020
84.900000 -0.931895 -0.931020
84.950000 -0.931841 -0.931020
85.000000 -0.931767 -0.931020
85.050000 -0.931676 -0.931020
85.100000 -0.931569 -0.931020
85.150000 -0.931449 -0.931020
85.200000 -0.931320 -0.931020
85.250000 -0.931184 -0.931020
85.300000 -0.931046 -0.931020
85.350000 -0.930909 -0.931020
85.400000 -0.930775 -0.931020
85.450000 -0.930649 -0.931020
85.500000 -0.930533 -0.931020
85.550000 -0.930430 -0.931020
85.600000 -0.930343 -0.931020
85.650000 -0.930273 -0.931020
85.700000 -0.930222 -0.931020
85.750000 -0.930192 -0.931020
85.800000 -0.930182 -0.931020
85.850000 -0.930193 -0.931020
85.900000 -0.930224 -0.931020
85.950000 -0.930275 -0.931020
86.000000 -0.930343 -0.931020
86.050000 -0.930428 -0.931020
86.100000 -0.930526 -0.931020
86.150000 -0.930636 -0.931020
86.200000 -0.930754 -0.931020
86.250000 -0.930878 -0.931020
86.300000 -0.931004 -0.931020
86.350000 -0.931130 -0.931020
86.400000 -0.931251 -0.931020
86.450000 -0.931366 -0.931020
86.500000 -0.931471 -0.931020
86.550000 -0.931564 -0.931020
86.600000 -0.931643 -0.931020
86.650000 -0.931706 -0.931020
86.700000 -0.931751 -0.931020
86.750000 -0.931777 -0.931020
86.800000 -0.931785 -0.931020
86.850000 -0.931774 -0.931020
86.900000 -0.931744 -0.931020
86.950000 -0.931697 -0.931020
87.000000 -0.931634 -0.931020
87.050000 -0.931555 -0.931020
87.100000 -0.931465 -0.931020
87.150000 -0.931364 -0.931020
87.200000 -0.931256 -0.931020
87.250000 -0.931143 -0.931020
87.300000 -0.931027 -0.931020
87.350000 -0.930913 -0.931020
87.400000 -0.930803 -0.931020
87.450000 -0.930698 -0.931020
87.500000 -0.930603 -0.931020
87.550000 -0.930519 -0.931020
87.600000 -0.930448 -0.931020
87.650000 -0.930392 -0.931020
87.700000 -0.930351 -0.931020
87.750000 -0.930328 -0.931020
87.800000 -0.930322 -0.931020
87.850000 -0.930333 -0.931020
87.900000 -0.930361 -0.931020
87.950000 -0.930406 -0.931020
88.000000 -0.930464 -0.931020
88.050000 -0.930537 -0.931020
88.100000 -0.930620 -0.931020
88.150000 -0.930712 -0.931020
88.200000 -0.930812 -0.931020
88.250000 -0.930915 -0.931020
88.300000 -0.931020 -0.931020
88.350000 -0.931124 -0.931020
88.400000 -0.931225 -0.931020
88.450000 -0.931320 -0.931020
88.500000 -0.931406 -0.931020
88.550000 -0.931482 -0.931020
88.600000 -0.931546 -0.931020
88.650000 -0.931597 -0.931020
88.700000 -0.931632 -0.931020
88.750000 -0.931653 -0.931020
88.800000 -0.931657 -0.931020
88.850000 -0.931646 -0.931020
88.900000 -0.931619 -0.931020
88.950000 -0.931578 -0.931020
89.000000 -0.931524 -0.931020
89.050000 -0.931457 -0.931020
89.100000 -0.931380 -0.931020
89.150000 -0.931296 -0.931020
89.200000 -0.931205 -0.931020
89.250000 -0.931110 -0.931020
89.300000 -0.931014 -0.931020
89.350000 -0.930919 -0.931020
89.400000 -0.930828 -0.931020
89.450000 -0.930742 -0.931020
89.500000 -0.930663 -0.931020
89.550000 -0.930595 -0.931020
89.600000 -0.930537 -0.931020
89.650000 -0.930492 -0.931020
89.700000 -0.930460 -0.931020
89.750000 -0.930442 -0.931020
89.800000 -0.930439 -0.931020
89.850000 -0.930450 -0.931020
89.900000 -0.930475 -0.931020
89.950000 -0.930514 -0.931020
90.000000 -0.930564 -0.931020
90.050000 -0.930626 -0.931020
90.100000 -0.930696 -0.931020
90.150000 -0.930774 -0.931020
90.200000 -0.930857 -0.931020
90.250000 -0.930944 -0.931020
90.300000 -0.931031 -0.931020
90.350000 -0.931118 -0.931020
90.400000 -0.931201 -0.931020
90.450000 -0.931279 -0.931020
90.500000 -0.931350 -0.931020
90.550000 -0.931412 -0.931020
90.600000 -0.931464 -0.931020
90.650000 -0.931505 -0.931020
90.700000 -0.931533 -0.931020
90.750000 -0.931548 -0.931020
90.800000 -0.931550 -0.931020
90.850000 -0.931539 -0.931020
90.900000 -0.931515 -0.931020
90.950000 -0.931480 -0.931020
91.000000 -0.931433 -0.931020
91.050000 -0.931376 -0.931020
91.100000 -0.931312 -0.931020
91.150000 -0.931240 -0.931020
91.200000 -0.931164 -0.931020
91.250000 -0.931085 -0.931020
91.300000 -0.931005 -0.931020
91.350000 -0.930926 -0.931020
91.400000 -0.930851 -0.931020
91.450000 -0.930780 -0.931020
91.500000 -0.930715 -0.931020
91.550000 -0.930659 -0.931020
91.600000 -0.930612 -0.931020
91.650000 -0.930576 -0.931020
91.700000 -0.930551 -0.931020
91.750000 -0.930538 -0.931020
91.800000 -0.930537 -0.931020
91.850000 -0.930548 -0.931020
91.900000 -0.930570 -0.931020
91.950000 -0.930603 -0.931020
92.000000 -0.930646 -0.931020
92.050000 -0.930699 -0.931020
92.100000 -0.930758 -0.931020
92.150000 -0.930824 -0.931020
92.200000 -0.930893 -0.931020
92.250000 -0.930966 -0.931020
92.300000 -0.931038 -0.931020
92.350000 -0.931110 -0.931020
92.400000 -0.931179 -0.931020
92.450000 -0.931244 -0.931020
92.500000 -0.931302 -0.931020
92.550000 -0.931353 -0.931020
92.600000 -0.931395 -0.931020
92.650000 -0.931427 -0.931020
92.700000 -0.931449 -0.931020
92.750000 -0.931461 -0.931020
92.800000 -0.931461 -0.931020
92.850000 -0.931451 -0.931020
92.900000 -0.931429 -0.931020
92.950000 -0.931399 -0.931020
93.000000 -0.931359 -0.931020
93.050000 -0.931311 -0.931020
93.100000 -0.931256 -0.931020
93.150000 -0.931196 -0.931020
93.200000 -0.931132 -0.931020
93.250000 -0.931066 -0.931020
93.300000 -0.930999 -0.931020
93.350000 -0.930934 -0.931020
93.400000 -0.930871 -0.931020
93.450000 -0.930813 -0.931020
93.500000 -0.930760 -0.931020
93.550000 -0.930714 -0.931020
93.600000 -0.930676 -0.931020
93.650000 -0.930647 -0.931020
93.700000 -0.930628 -0.931020
93.750000 -0.930618 -0.931020
93.800000 -0.930618 -0.931020
93.850000 -0.930628 -0.931020
93.900000 -0.930648 -0.931020
93.950000 -0.930677 -0.931020
94.000000 -0.930714 -0.931020
94.050000 -0.930758 -0.931020
94.100000 -0.930808 -0.931020
94.150000 -0.930864 -0.931020
94.200000 -0.930922 -0.931020
94.250000 -0.930982 -0.931020
94.300000 -0.931043 -0.931020
94.350000 -0.931103 -0.931020
94.400000 -0.931160 -0.931020
94.450000 -0.931213 -0.931020
94.500000 -0.931260 -0.931020
94.550000 -0.931302 -0.931020
94.600000 -0.931336 -0.931020
94.650000 -0.931362 -0.931020
94.700000 -0.931379 -0.931020
94.750000 -0.931388 -0.931020
94.800000 -0.931387 -0.931020
94.850000 -0.931377 -0.931020
94.900000 -0.931358 -0.931020
94.950000 -0.931332 -0.931020
95.000000 -0.931297 -0.931020
95.050000 -0.931257 -0.931020
95.100000 -0.931210 -0.931020
95.150000 -0.931160 -0.931020
95.200000 -0.931106 -0.931020
95.250000 -0.931051 -0.931020
95.300000 -0.930996 -0.931020
95.350000 -0.930942 -0.931020
95.400000 -0.930890 -0.931020
95.450000 -0.930842 -0.931020
95.500000 -0.930798 -0.931020
95.550000 -0.930761 -0.931020
95.600000 -0.930730 -0.931020
95.650000 -0.930707 -0.931020
95.700000 -0.930692 -0.931020
95.750000 -0.930685 -0.931020
95.800000 -0.930686 -0.931020
95.850000 -0.930695 -0.931020
95.900000 -0.930713 -0.931020
95.950000 -0.930738 -0.931020
96.000000 -0.930769 -0.931020
96.050000 -0.930807 -0.931020
96.100000 -0.930849 -0.931020
96.150000 -0.930896 -0.931020
96.200000 -0.930945 -0.931020
96.250000 -0.930995 -0.931020
96.300000 -0.931045 -0.931020
96.350000 -0.931095 -0.931020
96.400000 -0.931142 -0.931020
96.450000 -0.931186 -0.931020
96.500000 -0.931225 -0.931020
96.550000 -0.931259 -0.931020
96.600000 -0.931286 -0.931020
96.650000 -0.931307 -0.931020
96.700000 -0.931321 -0.931020
96.750000 -0.931327 -0.931020
96.800000 -0.931325 -0.931020
96.850000 -0.931316 -0.931020
96.900000 -0.931299 -0.931020
96.950000 -0.931276 -0.931020
97.000000 -0.931247 -0.931020
97.050000 -0.931212 -0.931020
97.100000 -0.931173 -0.931020
97.150000 -0.931131 -0.931020
97.200000 -0.931086 -0.931020
97.250000 -0.931040 -0.931020
97.300000 -0.930994 -0.931020
97.350000 -0.930949 -0.931020
97.400000 -0.930906 -0.931020
97.450000 -0.930867 -0.931020
97.500000 -0.930831 -0.931020
97.550000 -0.930801 -0.931020
97.600000 -0.930776 -0.931020
97.650000 -0.930757 -0.931020
97.700000 -0.930745 -0.931020
97.750000 -0.930740 -0.931020
97.800000 -0.930742 -0.931020
97.850000 -0.930751 -0.931020
97.900000 -0.930767 -0.931020
97.950000 -0.930788 -0.931020
98.000000 -0.930815 -0.931020
98.050000 -0.930847 -0.931020
98.100000 -0.930883 -0.931020
98.150000 -0.930922 -0.931020
98.200000 -0.930962 -0.931020
98.250000 -0.931004 -0.931020
98.300000 -0.931047 -0.931020
98.350000 -0.931087 -0.931020
98.400000 -0.931126 -0.931020
98.450000 -0.931162 -0.931020
98.500000 -0.931195 -0.931020
98.550000 -0.931222 -0.931020
98.600000 -0.931244 -0.931020
98.650000 -0.931261 -0.931020
98.700000 -0.931271 -0.931020
98.750000 -0.931276 -0.931020
98.800000 -0.931273 -0.931020
98.850000 -0.931265 -0.931020
98.900000 -0.931251 -0.931020
98.950000 -0.931231 -0.931020
99.000000 -0.931206 -0.931020
99.050000 -0.931176 -0.931020
99.100000 -0.931144 -0.931020
99.150000 -0.931108 -0.931020
99.200000 -0.931070 -0.931020
99.250000 -0.931032 -0.931020
99.300000 -0.930994 -0.931020
99.350000 -0.930956 -0.931020
99.400000 -0.930921 -0.931020
99.450000 -0.930888 -0.931020
99.500000 -0.930859 -0.931020
99.550000 -0.930835 -0.931020
99.600000 -0.930814 -0.931020
99.650000 -0.930800 -0.931020
99.700000 -0.930791 -0.931020
99.750000 -0.930787 -0.931020
99.800000 -0.930789 -0.931020
99.850000 -0.930797 -0.931020
99.900000 -0.930811 -0.931020
99.950000 -0.930829 -0.931020
100.000000 -0.930852 -0.931020
100.050000 -0.930879 -0.931020
100.100000 -0.930910 -0.931020
100.150000 -0.930942 -0.931020
100.200000 -0.930976 -0.931020
100.250000 -0.931012 -0.931020
100.300000 -0.931046 -0.931020
100.350000 -0.931080 -0.931020
100.400000 -0.931113 -0.931020
100.450000 -0.931142 -0.931020
100.500000 -0.931168 -0.931020
100.550000 -0.931191 -0.931020
100.600000 -0.931209 -0.931020
100.650000 -0.931222 -0.931020
100.700000 -0.931230 -0.931020
100.750000 -0.931233 -0.931020
100.800000 -0.931230 -0.931020
100.850000 -0.931223 -0.931020
100.900000 -0.931210 -0.931020
100.950000 -0.931193 -0.931020
101.000000 -0.931172 -0.931020
101.050000 -0.931147 -0.931020
101.100000 -0.931119 -0.931020
101.150000 -0.931089 -0.931020
101.200000 -0.931058 -0.931020
101.250000 -0.931026 -0.931020
101.300000 -0.930994 -0.931020
101.350000 -0.930963 -0.931020
101.400000 -0.930934 -0.931020
101.450000 -0.930907 -0.931020
101.500000 -0.930883 -0.931020
101.550000 -0.930863 -0.931020
101.600000 -0.930847 -0.931020
101.650000 -0.930835 -0.931020
101.700000 -0.930828 -0.931020
101.750000 -0.930826 -0.931020
101.800000 -0.930829 -0.931020
101.850000 -0.930836 -0.931020
101.900000 -0.930848 -0.931020
101.950000 -0.930863 -0.931020
102.000000 -0.930883 -0.931020
102.050000 -0.930906 -0.931020
102.100000 -0.930931 -0.931020
102.150000 -0.930959 -0.931020
102.200000 -0.930987 -0.931020
102.250000 -0.931017 -0.931020
102.300000 -0.931046 -0.931020
102.350000 -0.931074 -0.931020
102.400000 -0.931100 -0.931020
102.450000 -0.931125 -0.931020
102.500000 -0.931146 -0.931020
102.550000 -0.931164 -0.931020
102.600000 -0.931179 -0.931020
102.650000 -0.931189 -0.931020
102.700000 -0.931196 -0.931020
102.750000 -0.931197 -0.931020
102.800000 -0.931195 -0.931020
102.850000 -0.931188 -0.931020
102.900000 -0.931177 -0.931020
102.950000 -0.931162 -0.931020
103.000000 -0.931144 -0.931020
103.050000 -0.931123 -0.931020
103.100000 -0.931100 -0.931020
103.150000 -0.931075 -0.931020
103.200000 -0.931048 -0.931020
103.250000 -0.931022 -0.931020
103.300000 -0.930995 -0.931020
103.350000 -0.930970 -0.931020
103.400000 -0.930946 -0.931020
103.450000 -0.930923 -0.931020
103.500000 -0.930904 -0.931020
103.550000 -0.930888 -0.931020
103.600000 -0.930875 -0.931020
103.650000 -0.930865 -0.931020
103.700000 -0.930860 -0.931020
103.750000 -0.930859 -0.931020
103.800000 -0.930861 -0.931020
103.850000 -0.930868 -0.931020
103.900000 -0.930878 -0.931020
103.950000 -0.930892 -0.931020
104.000000 -0.930908 -0.931020
104.050000 -0.930928 -0.931020
104.100000 -0.930949 -0.931020
104.150000 -0.930972 -0.931020
104.200000 -0.930996 -0.931020
104.250000 -0.931020 -0.931020
104.300000 -0.931044 -0.931020
104.350000 -0.931068 -0.931020
104.400000 -0.931090 -0.931020
104.450000 -0.931110 -0.931020
104.500000 -0.931127 -0.931020
104.550000 -0.931142 -0.931020
104.600000 -0.931154 -0.931020
104.650000 -0.931162 -0.931020
104.700000 -0.931167 -0.931020
104.750000 -0.931168 -0.931020
104.800000 -0.931165 -0.931020
104.850000 -0.931159 -0.931020
104.900000 -0.931149 -0.931020
104.950000 -0.931137 -0.931020
105.000000 -0.931121 -0.931020
105.050000 -0.931103 -0.931020
105.100000 -0.931084 -0.931020
105.150000 -0.931063 -0.931020
105.200000 -0.931041 -0.931020
105.250000 -0.931019 -0.931020
105.300000 -0.930997 -0.931020
105.350000 -0.930975 -0.931020
105.400000 -0.930956 -0.931020
105.450000 -0.930937 -0.931020
105.500000 -0.930922 -0.931020
105.550000 -0.930908 -0.931020
105.600000 -0.930898 -0.931020
105.650000 -0.930890 -0.931020
105.700000 -0.930886 -0.931020
105.750000 -0.930886 -0.931020
105.800000 -0.930888 -0.931020
105.850000 -0.930894 -0.931020
105.900000 -0.930903 -0.931020
105.950000 -0.930915 -0.931020
106.000000 -0.930929 -0.931020
106.050000 -0.930945 -0.931020
106.100000 -0.930963 -0.931020
106.150000 -0.930983 -0.931020
106.200000 -0.931003 -0.931020
106.250000 -0.931023 -0.931020
106.300000 -0.931043 -0.931020
106.350000 -0.931062 -0.931020
106.400000 -0.931080 -0.931020
106.450000 -0.931097 -0.931020
106.500000 -0.931111 -0.931020
106.550000 -0.931123 -0.931020
106.600000 -0.931132 -0.931020
106.650000 -0.931139 -0.931020
106.700000 -0.931142 -0.931020
106.750000 -0.931143 -0.931020
106.800000 -0.931140 -0.931020
106.850000 -0.931135 -0.931020
106.900000 -0.931127 -0.931020
106.950000 -0.931116 -0.931020
107.000000 -0.931103 -0.931020
107.050000 -0.931088 -0.931020
107.100000 -0.931071 -0.931020
107.150000 -0.931053 -0.931020
107.200000 -0.931035 -0.931020
107.250000 -0.931017 -0.931020
107.300000 -0.930998 -0.931020
107.350000 -0.930981 -0.931020
107.400000 -0.930964 -0.931020
107.450000 -0.930950 -0.931020
107.500000 -0.930937 -0.931020
107.550000 -0.930926 -0.931020
107.600000 -0.930917 -0.931020
107.650000 -0.930912 -0.931020
107.700000 -0.930908 -0.931020
107.750000 -0.930908 -0.931020
107.800000 -0.930911 -0.931020
107.850000 -0.930916 -0.931020
107.900000 -0.930924 -0.931020
107.950000 -0.930934 -0.931020
108.000000 -0.930946 -0.931020
108.050000 -0.930960 -0.931020
108.100000 -0.930975 -0.931020
108.150000 -0.930991 -0.931020
108.200000 -0.931008 -0.931020
108.250000 -0.931024 -0.931020
108.300000 -0.931041 -0.931020
108.350000 -0.931057 -0.931020
108.400000 -0.931072 -0.931020
108.450000 -0.931085 -0.931020
108.500000 -0.931097 -0.931020
108.550000 -0.931107 -0.931020
108.600000 -0.931114 -0.931020
108.650000 -0.931120 -0.931020
108.700000 -0.931122 -0.931020
108.750000 -0.931122 -0.931020
108.800000 -0.931120 -0.931020
108.850000 -0.931115 -0.931020
108.900000 -0.931108 -0.931020
108.950000 -0.931098 -0.931020
109.000000 -0.931087 -0.931020
109.050000 -0.931075 -0.931020
109.100000 -0.931061 -0.931020
109.150000 -0.931046 -0.931020
109.200000 -0.931031 -0.931020
109.250000 -0.931015 -0.931020
109.300000 -0.931000 -0.931020
109.350000 -0.930986 -0.931020
109.400000 -0.930972 -0.931020
109.450000 -0.930960 -0.931020
109.500000 -0.930949 -0.931020
109.550000 -0.930940 -0.931020
109.600000 -0.930934 -0.931020
109.650000 -0.930929 -0.931020
109.700000 -0.930927 -0.931020
109.750000 -0.930927 -0.931020
109.800000 -0.930929 -0.931020
109.850000 -0.930934 -0.931020
109.900000 -0.930941 -0.931020
109.950000 -0.930949 -0.931020
110.000000 -0.930960 -0.931020
110.050000 -0.930971 -0.931020
110.100000 -0.930984 -0.931020
110.150000 -0.930998 -0.931020
110.200000 -0.931011 -0.931020
110.250000 -0.931026 -0.931020
110.300000 -0.931039 -0.931020
110.350000 -0.931053 -0.931020
110.400000 -0.931065 -0.931020
110.450000 -0.931076 -0.931020
110.500000 -0.931085 -0.931020
110.550000 -0.931093 -0.931020
110.600000 -0.931099 -0.931020
110.650000 -0.931103 -0.931020
110.700000 -0.931105 -0.931020
110.750000 -0.931105 -0.931020
110.800000 -0.931103 -0.931020
110.850000 -0.931098 -0.931020
110.900000 -0.931092 -0.931020
110.950000 -0.931084 -0.931020
111.000000 -0.931075 -0.931020
111.050000 -0.931064 -0.931020
111.100000 -0.931052 -0.931020
111.150000 -0.931040 -0.931020
111.200000 -0.931027 -0.931020
111.250000 -0.931014 -0.931020
111.300000 -0.931002 -0.931020
111.350000 -0.930990 -0.931020
111.400000 -0.930979 -0.931020
111.450000 -0.930969 -0.931020
111.500000 -0.930960 -0.931020
111.550000 -0.930953 -0.931020
111.600000 -0.930948 -0.931020
111.650000 -0.930944 -0.931020
111.700000 -0.930942 -0.931020
111.750000 -0.930943 -0.931020
111.800000 -0.930945 -0.931020
111.850000 -0.930949 -0.931020
111.900000 -0.930955 -0.931020
111.950000 -0.930962 -0.931020
112.000000 -0.930971 -0.931020
112.050000 -0.930981 -0.931020
112.100000 -0.930991 -0.931020
112.150000 -0.931003 -0.931020
112.200000 -0.931014 -0.931020
112.250000 -0.931026 -0.931020
112.300000 -0.931038 -0.931020
112.350000 -0.931048 -0.931020
112.400000 -0.931059 -0.931020
112.450000 -0.931068 -0.931020
112.500000 -0.931075 -0.931020
112.550000 -0.931082 -0.931020
112.600000 -0.931087 -0.931020
112.650000 -0.931090 -0.931020
112.700000 -0.931091 -0.931020
112.750000 -0.931091 -0.931020
112.800000 -0.931089 -0.931020
112.850000 -0.931085 -0.931020
112.900000 -0.931079 -0.931020
112.950000 -0.931073 -0.931020
113.000000 -0.931065 -0.931020
113.050000 -0.931056 -0.931020
113.100000 -0.931046 -0.931020
113.150000 -0.931035 -0.931020
113.200000 -0.931025 -0.931020
113.250000 -0.931014 -0.931020
113.300000 -0.931004 -0.931020
113.350000 -0.930994 -0.931020
113.400000 -0.930985 -0.931020
113.450000 -0.930976 -0.931020
113.500000 -0.930969 -0.931020
113.550000 -0.930964 -0.931020
113.600000 -0.930959 -0.931020
113.650000 -0.930957 -0.931020
113.700000 -0.930955 -0.931020
113.750000 -0.930956 -0.931020
113.800000 -0.930958 -0.931020
113.850000 -0.930961 -0.931020
113.900000 -0.930966 -0.931020
113.950000 -0.930973 -0.931020
114.000000 -0.930980 -0.931020
114.050000 -0.930988 -0.931020
114.100000 -0.930997 -0.931020
114.150000 -0.931007 -0.931020
114.200000 -0.931017 -0.931020
114.250000 -0.931026 -0.931020
114.300000 -0.931036 -0.931020
114.350000 -0.931045 -0.931020
114.400000 -0.931053 -0.931020
114.450000 -0.931061 -0.931020
114.500000 -0.931067 -0.931020
114.550000 -0.931072 -0.931020
114.600000 -0.931076 -0.931020
114.650000 -0.931078 -0.931020
114.700000 -0.931079 -0.931020
114.750000 -0.931079 -0.931020
114.800000 -0.931077 -0.931020
114.850000 -0.931074 -0.931020
114.900000 -0.931069 -0.931020
114.950000 -0.931063 -0.931020
115.000000 -0.931056 -0.931020
115.050000 -0.931049 -0.931020
115.100000 -0.931040 -0.931020
115.150000 -0.931032 -0.931020
115.200000 -0.931023 -0.931020
115.250000 -0.931014 -0.931020
115.300000 -0.931005 -0.931020
115.350000 -0.930997 -0.931020
115.400000 -0.930990 -0.931020
115.450000 -0.930983 -0.931020
115.500000 -0.930977 -0.931020
115.550000 -0.930973 -0.931020
115.600000 -0.930969 -0.931020
115.650000 -0.930967 -0.931020
115.700000 -0.930966 -0.931020
115.750000 -0.930967 -0.931020
115.800000 -0.930969 -0.931020
115.850000 -0.930972 -0.931020
115.900000 -0.930976 -0.931020
115.950000 -0.930981 -0.931020
116.000000 -0.930988 -0.931020
116.050000 -0.930995 -0.931020
116.100000 -0.931002 -0.931020
116.150000 -0.931010 -0.931020
116.200000 -0.931018 -0.931020
116.250000 -0.931026 -0.931020
116.300000 -0.931034 -0.931020
116.350000 -0.931042 -0.931020
116.400000 -0.931048 -0.931020
116.450000 -0.931055 -0.931020
116.500000 -0.931060 -0.931020
116.550000 -0.931064 -0.931020
116.600000 -0.931067 -0.931020
116.650000 -0.931069 -0.931020
116.700000 -0.931069 -0.931020
116.750000 -0.931069 -0.931020
116.800000 -0.931067 -0.931020
116.850000 -0.931064 -0.931020
116.900000 -0.931060 -0.931020
116.950000 -0.931055 -0.931020
117.000000 -0.931050 -0.931020
117.050000 -0.931043 -0.931020
117.100000 -0.931036 -0.931020
117.150000 -0.931029 -0.931020
117.200000 -0.931021 -0.931020
117.250000 -0.931014 -0.931020
117.300000 -0.931007 -0.931020
117.350000 -0.931000 -0.931020
117.400000 -0.930994 -0.931020
117.450000 -0.930988 -0.931020
117.500000 -0.930984 -0.931020
117.550000 -0.930980 -0.931020
117.600000 -0.930977 -0.931020
117.650000 -0.930976 -0.931020
117.700000 -0.930975 -0.931020
117.750000 -0.930976 -0.931020
117.800000 -0.930977 -0.931020
117.850000 -0.930980 -0.931020
117.900000 -0.930984 -0.931020
117.950000 -0.930988 -0.931020
118.000000 -0.930994 -0.931020
118.050000 -0.931000 -0.931020
118.100000 -0.931006 -0.931020
118.150000 -0.931013 -0.931020
118.200000 -0.931019 -0.931020
118.250000 -0.931026 -0.931020
118.300000 -0.931033 -0.931020
118.350000 -0.931039 -0.931020
118.400000 -0.931044 -0.931020
118.450000 -0.931049 -0.931020
118.500000 -0.931054 -0.931020
118.550000 -0.931057 -0.931020
118.600000 -0.931059 -0.931020
118.650000 -0.931061 -0.931020
118.700000 -0.931061 -0.931020
118.750000 -0.931061 -0.931020
118.800000 -0.931059 -0.931020
118.850000 -0.931056 -0.931020
118.900000 -0.931053 -0.931020
118.950000 -0.931049 -0.931020
119.000000 -0.931044 -0.931020
119.050000 -0.931039 -0.931020
119.100000 -0.931033 -0.931020
119.150000 -0.931027 -0.931020
119.200000 -0.931020 -0.931020
119.250000 -0.931014 -0.931020
119.300000 -0.931008 -0.931020
119.350000 -0.931003 -0.931020
119.400000 -0.930998 -0.931020
119.450000 -0.930993 -0.931020
119.500000 -0.930989 -0.931020
119.550000 -0.930986 -0.931020
119.600000 -0.930984 -0.931020
119.650000 -0.930983 -0.931020
119.700000 -0.930983 -0.931020
119.750000 -0.930983 -0.931020
119.800000 -0.930985 -0.931020
119.850000 -0.930987 -0.931020
119.900000 -0.930990 -0.931020
119.950000 -0.930994 -0.931020
120.000000 -0.930999 -0.931020
120.050000 -0.931004 -0.931020
120.100000 -0.931009 -0.931020
120.150000 -0.931015 -0.931020
120.200000 -0.931020 -0.931020
120.250000 -0.931026 -0.931020
120.300000 -0.931031 -0.931020
120.350000 -0.931036 -0.931020
120.400000 -0.931041 -0.931020
120.450000 -0.931045 -0.931020
120.500000 -0.931048 -0.931020
120.550000 -0.931051 -0.931020
120.600000 -0.931053 -0.931020
120.650000 -0.931054 -0.931020
120.700000 -0.931054 -0.931020
120.750000 -0.931054 -0.931020
120.800000 -0.931052 -0.931020
120.850000 -0.931050 -0.931020
120.900000 -0.931047 -0.931020
120.950000 -0.931044 -0.931020
121.000000 -0.931039 -0.931020
121.050000 -0.931035 -0.931020
121.100000 -0.931030 -0.931020
121.150000 -0.931025 -0.931020
121.200000 -0.931020 -0.931020
121.250000 -0.931015 -0.931020
121.300000 -0.931010 -0.931020
121.350000 -0.931005 -0.931020
121.400000 -0.931001 -0.931020
121.450000 -0.930997 -0.931020
121.500000 -0.930994 -0.931020
121.550000 -0.930992 -0.931020
121.600000 -0.930990 -0.931020
121.650000 -0.930989 -0.931020
121.700000 -0.930989 -0.931020
121.750000 -0.930990 -0.931020
121.800000 -0.930991 -0.931020
121.850000 -0.930993 -0.931020
121.900000 -0.930996 -0.931020
121.950000 -0.930999 -0.931020
122.000000 -0.931003 -0.931020
122.050000 -0.931007 -0.931020
122.100000 -0.931011 -0.931020
122.150000 -0.931016 -0.931020
122.200000 -0.931021 -0.931020
122.250000 -0.931025 -0.931020
122.300000 -0.931030 -0.931020
122.350000 -0.931034 -0.931020
122.400000 -0.931038 -0.931020
122.450000 -0.931041 -0.931020
122.500000 -0.931044 -0.931020
122.550000 -0.931046 -0.931020
122.600000 -0.931048 -0.931020
122.650000 -0.931048 -0.931020
122.700000 -0.931049 -0.931020
122.750000 -0.931048 -0.931020
122.800000 -0.931047 -0.931020
122.850000 -0.931045 -0.931020
122.900000 -0.931042 -0.931020
122.950000 -0.931039 -0.931020
123.000000 -0.931036 -0.931020
123.050000 -0.931032 -0.931020
123.100000 -0.931028 -0.931020
123.150000 -0.931024 -0.931020
123.200000 -0.931019 -0.931020
123.250000 -0.931015 -0.931020
123.300000 -0.931011 -0.931020
123.350000 -0.931007 -0.931020
123.400000 -0.931004 -0.931020
123.450000 -0.931001 -0.931020
123.500000 -0.930998 -0.931020
123.550000 -0.930996 -0.931020
123.600000 -0.930995 -0.931020
123.650000 -0.930994 -0.931020
123.700000 -0.930994 -0.931020
123.750000 -0.930995 -0.931020
123.800000 -0.930996 -0.931020
123.850000 -0.930998 -0.931020
123.900000 -0.931000 -0.931020
123.950000 -0.931003 -0.931020
124.000000 -0.931006 -0.931020
124.050000 -0.931010 -0.931020
124.100000 -0.931013 -0.931020
124.150000 -0.931017 -0.931020
124.200000 -0.931021 -0.931020
124.250000 -0.931025 -0.931020
124.300000 -0.931029 -0.931020
124.350000 -0.931032 -0.931020
124.400000 -0.931035 -0.931020
124.450000 -0.931038 -0.931020
124.500000 -0.931040 -0.931020
124.550000 -0.931042 -0.931020
124.600000 -0.931043 -0.931020
124.650000 -0.931044 -0.931020
124.700000 -0.931044 -0.931020
124.750000 -0.931043 -0.931020
124.800000 -0.931042 -0.931020
124.850000 -0.931040 -0.931020
124.900000 -0.931038 -0.931020
124.950000 -0.931036 -0.931020
125.000000 -0.931033 -0.931020
125.050000 -0.931030 -0.931020
125.100000 -0.931026 -0.931020
125.150000 -0.931023 -0.931020
125.200000 -0.931019 -0.931020
125.250000 -0.931016 -0.931020
125.300000 -0.931012 -0.931020
125.350000 -0.931009 -0.931020
125.400000 -0.931006 -0.931020
125.450000 -0.931004 -0.931020
125.500000 -0.931002 -0.931020
125.550000 -0.931000 -0.931020
125.600000 -0.930999 -0.931020
125.650000 -0.930999 -0.931020
125.700000 -0.930999 -0.931020
125.750000 -0.930999 -0.931020
125.800000 -0.931000 -0.931020
125.850000 -0.931002 -0.931020
125.900000 -0.931004 -0.931020
125.950000 -0.931006 -0.931020
126.000000 -0.931009 -0.931020
126.050000 -0.931012 -0.931020
126.100000 -0.931015 -0.931020
126.150000 -0.931018 -0.931020
126.200000 -0.931021 -0.931020
126.250000 -0.931025 -0.931020
126.300000 -0.931028 -0.931020
126.350000 -0.931031 -0.931020
126.400000 -0.931033 -0.931020
126.450000 -0.931035 -0.931020
126.500000 -0.931037 -0.931020
126.550000 -0.931039 -0.931020
126.600000 -0.931039 -0.931020
126.650000 -0.931040 -0.931020
126.700000 -0.931040 -0.931020
126.750000 -0.931039 -0.931020
126.800000 -0.931038 -0.931020
126.850000 -0.931037 -0.931020
126.900000 -0.931035 -0.931020
126.950000 -0.931033 -0.931020
127.000000 -0.931030 -0.931020
127.050000 -0.931028 -0.931020
127.100000 -0.931025 -0.931020
127.150000 -0.931022 -0.931020
127.200000 -0.931019 -0.931020
127.250000 -0.931016 -0.931020
127.300000 -0.931013 -0.931020
127.350000 -0.931011 -0.931020
127.400000 -0.931008 -0.931020
127.450000 -0.931006 -0.931020
127.500000 -0.931005 -0.931020
127.550000 -0.931003 -0.931020
127.600000 -0.931003 -0.931020
127.650000 -0.931002 -0.931020
127.700000 -0.931002 -0.931020
127.750000 -0.931003 -0.931020
127.800000 -0.931004 -0.931020
127.850000 -0.931005 -0.931020
127.900000 -0.931007 -0.931020
127.950000 -0.931009 -0.931020
128.000000 -0.931011 -0.931020
128.050000 -0.931014 -0.931020
128.100000 -0.931016 -0.931020
128.150000 -0.931019 -0.931020
128.200000 -0.931022 -0.931020
128.250000 -0.931024 -0.931020
128.300000 -0.931027 -0.931020
128.350000 -0.931029 -0.931020
128.400000 -0.931031 -0.931020
128.450000 -0.931033 -0.931020
128.500000 -0.931034 -0.931020
128.550000 -0.931036 -0.931020
128.600000 -0.931036 -0.931020
128.650000 -0.931037 -0.931020
128.700000 -0.931037 -0.931020
128.750000 -0.931036 -0.931020
128.800000 -0.931035 -0.931020
128.850000 -0.931034 -0.931020
128.900000 -0.931032 -0.931020
128.950000 -0.931030 -0.931020
129.000000 -0.931028 -0.931020
129.050000 -0.931026 -0.931020
129.100000 -0.931024 -0.931020
129.150000 -0.931021 -0.931020
129.200000 -0.931019 -0.931020
129.250000 -0.931016 -0.931020
129.300000 -0.931014 -0.931020
129.350000 -0.931012 -0.931020
129.400000 -0.931010 -0.931020
129.450000 -0.931008 -0.931020
129.500000 -0.931007 -0.931020
129.550000 -0.931006 -0.931020
129.600000 -0.931005 -0.931020
129.650000 -0.931005 -0.931020
129.700000 -0.931005 -0.931020
129.750000 -0.931006 -0.931020
129.800000 -0.931007 -0.931020
129.850000 -0.931008 -0.931020
129.900000 -0.931009 -0.931020
129.950000 -0.931011 -0.931020
130.000000 -0.931013 -0.931020
130.050000 -0.931015 -0.931020
130.100000 -0.931017 -0.931020
130.150000 -0.931019 -0.931020
130.200000 -0.931022 -0.931020
130.250000 -0.931024 -0.931020
130.300000 -0.931026 -0.931020
130.350000 -0.931028 -0.931020
130.400000 -0.931030 -0.931020
130.450000 -0.931031 -0.931020
130.500000 -0.931032 -0.931020
130.550000 -0.931033 -0.931020
130.600000 -0.931034 -0.931020
130.650000 -0.931034 -0.931020
130.700000 -0.931034 -0.931020
130.750000 -0.931033 -0.931020
130.800000 -0.931033 -0.931020
130.850000 -0.931031 -0.931020
130.900000 -0.931030 -0.931020
130.950000 -0.931029 -0.931020
131.000000 -0.931027 -0.931020
131.050000 -0.931025 -0.931020
131.100000 -0.931023 -0.931020
131.150000 -0.931021 -0.931020
131.200000 -0.931019 -0.931020
131.250000 -0.931017 -0.931020
131.300000 -0.931015 -0.931020
131.350000 -0.931013 -0.931020
131.400000 -0.931012 -0.931020
131.450000 -0.931010 -0.931020
131.500000 -0.931009 -0.931020
131.550000 -0.931008 -0.931020
131.600000 -0.931008 -0.931020
131.650000 -0.931008 -0.931020
131.700000 -0.931008 -0.931020
131.750000 -0.931008 -0.931020
131.800000 -0.931009 -0.931020
131.850000 -0.931010 -0.931020
131.900000 -0.931011 -0.931020
131.950000 -0.931013 -0.931020
132.000000 -0.931014 -0.931020
132.050000 -0.931016 -0.931020
132.100000 -0.931018 -0.931020
132.150000 -0.931020 -0.931020
132.200000 -0.931022 -0.931020
132.250000 -0.931023 -0.931020
132.300000 -0.931025 -0.931020
132.350000 -0.931027 -0.931020
132.400000 -0.931028 -0.931020
132.450000 -0.931029 -0.931020
132.500000 -0.931030 -0.931020
132.550000 -0.931031 -0.931020
132.600000 -0.931031 -0.931020
132.650000 -0.931032 -0.931020
132.700000 -0.931031 -0.931020
132.750000 -0.931031 -0.931020
132.800000 -0.931030 -0.931020
132.850000 -0.931029 -0.931020
132.900000 -0.931028 -0.931020
132.950000 -0.931027 -0.931020
133.000000 -0.931025 -0.931020
133.050000 -0.931024 -0.931020
133.100000 -0.931022 -0.931020
133.150000 -0.931020 -0.931020
133.200000 -0.931019 -0.931020
133.250000 -0.931017 -0.931020
133.300000 -0.931016 -0.931020
133.350000 -0.931014 -0.931020
133.400000 -0.931013 -0.931020
133.450000 -0.931012 -0.931020
133.500000 -0.931011 -0.931020
133.550000 -0.931010 -0.931020
133.600000 -0.931010 -0.931020
133.650000 -0.931010 -0.931020
133.700000 -0.931010 -0.931020
133.750000 -0.931010 -0.931020
133.800000 -0.931011 -0.931020
133.850000 -0.931012 -0.931020
133.900000 -0.931013 -0.931020
133.950000 -0.931014 -0.931020
134.000000 -0.931015 -0.931020
134.050000 -0.931017 -0.931020
134.100000 -0.931018 -0.931020
134.150000 -0.931020 -0.931020
134.200000 -0.931022 -0.931020
134.250000 -0.931023 -0.931020
134.300000 -0.931024 -0.931020
134.350000 -0.931026 -0.931020
134.400000 -0.931027 -0.931020
134.450000 -0.931028 -0.931020
134.500000 -0.931029 -0.931020
134.550000 -0.931029 -0.931020
134.600000 -0.931030 -0.931020
134.650000 -0.931030 -0.931020
134.700000 -0.931030 -0.931020
134.750000 -0.931029 -0.931020
134.800000 -0.931029 -0.931020
134.850000 -0.931028 -0.931020
134.900000 -0.931027 -0.931020
134.950000 -0.931026 -0.931020
135.000000 -0.931024 -0.931020
135.050000 -0.931023 -0.931020
135.100000 -0.931022 -0.931020
135.150000 -0.931020 -0.931020
135.200000 -0.931019 -0.931020
135.250000 -0.931017 -0.931020
135.300000 -0.931016 -0.931020
135.350000 -0.931015 -0.931020
135.400000 -0.931014 -0.931020
135.450000 -0.931013 -0.931020
135.500000 -0.931012 -0.931020
135.550000 -0.931012 -0.931020
135.600000 -0.931012 -0.931020
135.650000 -0.931012 -0.931020
135.700000 -0.931012 -0.931020
135.750000 -0.931012 -0.931020
135.800000 -0.931013 -0.931020
135.850000 -0.931013 -0.931020
135.900000 -0.931014 -0.931020
135.950000 -0.931015 -0.931020
136.000000 -0.931016 -0.931020
136.050000 -0.931018 -0.931020
136.100000 -0.931019 -0.931020
136.150000 -0.931020 -0.931020
136.200000 -0.931021 -0.931020
136.250000 -0.931023 -0.931020
136.300000 -0.931024 -0.931020
136.350000 -0.931025 -0.931020
136.400000 -0.931026 -0.931020
136.450000 -0.931027 -0.931020
136.500000 -0.931027 -0.931020
136.550000 -0.931028 -0.931020
136.600000 -0.931028 -0.931020
136.650000 -0.931028 -0.931020
136.700000 -0.931028 -0.931020
136.750000 -0.931028 -0.931020
136.800000 -0.931027 -0.931020
136.850000 -0.931026 -0.931020
136.900000 -0.931026 -0.931020
136.950000 -0.931025 -0.931020
137.000000 -0.931024 -0.931020
137.050000 -0.931022 -0.931020
137.100000 -0.931021 -0.931020
137.150000 -0.931020 -0.931020
137.200000 -0.931019 -0.931020
137.250000 -0.931018 -0.931020
137.300000 -0.931017 -0.931020
137.350000 -0.931016 -0.931020
137.400000 -0.931015 -0.931020
137.450000 -0.931014 -0.931020
137.500000 -0.931014 -0.931020
137.550000 -0.931013 -0.931020
137.600000 -0.931013 -0.931020
137.650000 -0.931013 -0.931020
137.700000 -0.931013 -0.931020
137.750000 -0.931013 -0.931020
137.800000 -0.931014 -0.931020
137.850000 -0.931015 -0.931020
137.900000 -0.931015 -0.931020
137.950000 -0.931016 -0.931020
138.000000 -0.931017 -0.931020
138.050000 -0.931018 -0.931020
138.100000 -0.931019 -0.931020
138.150000 -0.931020 -0.931020
138.200000 -0.931021 -0.931020
138.250000 -0.931022 -0.931020
138.300000 -0.931023 -0.931020
138.350000 -0.931024 -0.931020
138.400000 -0.931025 -0.931020
138.450000 -0.931026 -0.931020
138.500000 -0.931026 -0.931020
138.550000 -0.931027 -0.931020
138.600000 -0.931027 -0.931020
138.650000 -0.931027 -0.931020
138.700000 -0.931027 -0.931020
138.750000 -0.931026 -0.931020
138.800000 -0.931026 -0.931020
138.850000 -0.931025 -0.931020
138.900000 -0.931025 -0.931020
138.950000 -0.931024 -0.931020
139.000000 -0.931023 -0.931020
139.050000 -0.931022 -0.931020
139.100000 -0.931021 -0.931020
139.150000 -0.931020 -0.931020
139.200000 -0.931019 -0.931020
139.250000 -0.931018 -0.931020
139.300000 -0.931017 -0.931020
139.350000 -0.931016 -0.931020
139.400000 -0.931016 -0.931020
139.450000 -0.931015 -0.931020
139.500000 -0.931015 -0.931020
139.550000 -0.931014 -0.931020
139.600000 -0.931014 -0.931020
139.650000 -0.931014 -0.931020
139.700000 -0.931014 -0.931020
139.750000 -0.931015 -0.931020
139.800000 -0.931015 -0.931020
139.850000 -0.931016 -0.931020
139.900000 -0.931016 -0.931020
139.950000 -0.931017 -0.931020
140.000000 -0.931018 -0.931020
140.050000 -0.931019 -0.931020
140.100000 -0.931020 -0.931020
140.150000 -0.931020 -0.931020
140.200000 -0.931021 -0.931020
140.250000 -0.931022 -0.931020
140.300000 -0.931023 -0.931020
140.350000 -0.931024 -0.931020
140.400000 -0.931024 -0.931020
140.450000 -0.931025 -0.931020
140.500000 -0.931025 -0.931020
140.550000 -0.931026 -0.931020
140.600000 -0.931026 -0.931020
140.650000 -0.931026 -0.931020
140.700000 -0.931026 -0.931020
140.750000 -0.931025 -0.931020
140.800000 -0.931025 -0.931020
140.850000 -0.931024 -0.931020
140.900000 -0.931024 -0.931020
140.950000 -0.931023 -0.931020
141.000000 -0.931022 -0.931020
141.050000 -0.931022 -0.931020
141.100000 -0.931021 -0.931020
141.150000 -0.931020 -0.931020
141.200000 -0.931019 -0.931020
141.250000 -0.931018 -0.931020
141.300000 -0.931018 -0.931020
141.350000 -0.931017 -0.931020
141.400000 -0.931016 -0.931020
141.450000 -0.931016 -0.931020
141.500000 -0.931016 -0.931020
141.550000 -0.931015 -0.931020
141.600000 -0.931015 -0.931020
141.650000 -0.931015 -0.931020
141.700000 -0.931015 -0.931020
141.750000 -0.931016 -0.931020
141.800000 -0.931016 -0.931020
141.850000 -0.931016 -0.931020
141.900000 -0.931017 -0.931020
141.950000 -0.931018 -0.931020
142.000000 -0.931018 -0.931020
142.050000 -0.931019 -0.931020
142.100000 -0.931020 -0.931020
142.150000 -0.931020 -0.931020
142.200000 -0.931021 -0.931020
142.250000 -0.931022 -0.931020
142.300000 -0.931023 -0.931020
142.350000 -0.931023 -0.931020
142.400000 -0.931024 -0.931020
142.450000 -0.931024 -0.931020
142.500000 -0.931024 -0.931020
142.550000 -0.931025 -0.931020
142.600000 -0.931025 -0.931020
142.650000 -0.931025 -0.931020
142.700000 -0.931025 -0.931020
142.750000 -0.931024 -0.931020
142.800000 -0.931024 -0.931020
142.850000 -0.931024 -0.931020
142.900000 -0.931023 -0.931020
142.950000 -0.931023 -0.931020
143.000000 -0.931022 -0.931020
143.050000 -0.931021 -0.931020
143.100000 -0.931021 -0.931020
143.150000 -0.931020 -0.931020
143.200000 -0.931019 -0.931020
143.250000 -0.931019 -0.931020
143.300000 -0.931018 -0.931020
143.350000 -0.931017 -0.931020
143.400000 -0.931017 -0.931020
143.450000 -0.931017 -0.931020
143.500000 -0.931016 -0.931020
143.550000 -0.931016 -0.931020
143.600000 -0.931016 -0.931020
143.650000 -0.931016 -0.931020
143.700000 -0.931016 -0.931020
143.750000 -0.931016 -0.931020
143.800000 -0.931017 -0.931020
143.850000 -0.931017 -0.931020
143.900000 -0.931018 -0.931020
143.950000 -0.931018 -0.931020
144.000000 -0.931019 -0.931020
144.050000 -0.931019 -0.931020
144.100000 -0.931020 -0.931020
144.150000 -0.931020 -0.931020
144.200000 -0.931021 -0.931020
144.250000 -0.931022 -0.931020
144.300000 -0.931022 -0.931020
144.350000 -0.931023 -0.931020
144.400000 -0.931023 -0.931020
144.450000 -0.931023 -0.931020
144.500000 -0.931024 -0.931020
144.550000 -0.931024 -0.931020
144.600000 -0.931024 -0.931020
144.650000 -0.931024 -0.931020
144.700000 -0.931024 -0.931020
144.750000 -0.931024 -0.931020
144.800000 -0.931023 -0.931020
144.850000 -0.931023 -0.931020
144.900000 -0.931023 -0.931020
144.950000 -0.931022 -0.931020
145.000000 -0.931022 -0.931020
145.050000 -0.931021 -0.931020
145.100000 -0.931020 -0.931020
145.150000 -0.931020 -0.931020
145.200000 -0.931019 -0.931020
145.250000 -0.931019 -0.931020
145.300000 -0.931018 -0.931020
145.350000 -0.931018 -0.931020
145.400000 -0.931017 -0.931020
145.450000 -0.931017 -0.931020
145.500000 -0.931017 -0.931020
145.550000 -0.931017 -0.931020
145.600000 -0.931017 -0.931020
145.650000 -0.931017 -0.931020
145.700000 -0.931017 -0.931020
145.750000 -0.931017 -0.931020
145.800000 -0.931017 -0.931020
145.850000 -0.931018 -0.931020
145.900000 -0.931018 -0.931020
145.950000 -0.931018 -0.931020
146.000000 -0.931019 -0.931020
146.050000 -0.931019 -0.931020
146.100000 -0.931020 -0.931020
146.150000 -0.931021 -0.931020
146.200000 -0.931021 -0.931020
146.250000 -0.931021 -0.931020
146.300000 -0.931022 -0.931020
146.350000 -0.931022 -0.931020
146.400000 -0.931023 -0.931020
146.450000 -0.931023 -0.931020
146.500000 -0.931023 -0.931020
146.550000 -0.931023 -0.931020
146.600000 -0.931023 -0.931020
146.650000 -0.931023 -0.931020
146.700000 -0.931023 -0.931020
146.750000 -0.931023 -0.931020
146.800000 -0.931023 -0.931020
146.850000 -0.931022 -0.931020
146.900000 -0.931022 -0.931020
146.950000 -0.931022 -0.931020
147.000000 -0.931021 -0.931020
147.050000 -0.931021 -0.931020
147.100000 -0.931020 -0.931020
147.150000 -0.931020 -0.931020
147.200000 -0.931019 -0.931020
147.250000 -0.931019 -0.931020
147.300000 -0.931019 -0.931020
147.350000 -0.931018 -0.931020
147.400000 -0.931018 -0.931020
147.450000 -0.931018 -0.931020
147.500000 -0.931017 -0.931020
147.550000 -0.931017 -0.931020
147.600000 -0.931017 -0.931020
147.650000 -0.931017 -0.931020
147.700000 -0.931017 -0.931020
147.750000 -0.931018 -0.931020
147.800000 -0.931018 -0.931020
147.850000 -0.931018 -0.931020
147.900000 -0.931018 -0.931020
147.950000 -0.931019 -0.931020
148.000000 -0.931019 -0.931020
148.050000 -0.931020 -0.931020
148.100000 -0.931020 -0.931020
148.150000 -0.931021 -0.931020
148.200000 -0.931021 -0.931020
148.250000 -0.931021 -0.931020
148.300000 -0.931022 -0.931020
148.350000 -0.931022 -0.931020
148.400000 -0.931022 -0.931020
148.450000 -0.931023 -0.931020
148.500000 -0.931023 -0.931020
148.550000 -0.931023 -0.931020
148.600000 -0.931023 -0.931020
148.650000 -0.931023 -0.931020
148.700000 -0.931023 -0.931020
148.750000 -0.931023 -0.931020
148.800000 -0.931022 -0.931020
148.850000 -0.931022 -0.931020
148.900000 -0.931022 -0.931020
148.950000 -0.931021 -0.931020
149.000000 -0.931021 -0.931020
149.050000 -0.931021 -0.931020
149.100000 -0.931020 -0.931020
149.150000 -0.931020 -0.931020
149.200000 -0.931019 -0.931020
149.250000 -0.931019 -0.931020
149.300000 -0.931019 -0.931020
149.350000 -0.931018 -0.931020
149.400000 -0.931018 -0.931020
149.450000 -0.931018 -0.931020
149.500000 -0.931018 -0.931020
149.550000 -0.931018 -0.931020
149.600000 -0.931018 -0.931020
149.650000 -0.931018 -0.931020
149.700000 -0.931018 -0.931020
149.750000 -0.931018 -0.931020
149.800000 -0.931018 -0.931020
149.850000 -0.931018 -0.931020
149.900000 -0.931019 -0.931020
149.950000 -0.931019 -0.931020
150.000000 -0.931019 -0.931020
150.050000 -0.931020 -0.931020
150.100000 -0.931020 -0.931020
150.150000 -0.931020 -0.931020
150.200000 -0.931021 -0.931020
150.250000 -0.931021 -0.931020
150.300000 -0.931021 -0.931020
150.350000 -0.931022 -0.931020
150.400000 -0.931022 -0.931020
150.450000 -0.931022 -0.931020
150.500000 -0.931022 -0.931020
150.550000 -0.931022 -0.931020
150.600000 -0.931022 -0.931020
150.650000 -0.931022 -0.931020
150.700000 -0.931022 -0.931020
150.750000 -0.931022 -0.931020
150.800000 -0.931022 -0.931020
150.850000 -0.931022 -0.931020
150.900000 -0.931021 -0.931020
150.950000 -0.931021 -0.931020
151.000000 -0.931021 -0.931020
151.050000 -0.931021 -0.931020
151.100000 -0.931020 -0.931020
151.150000 -0.931020 -0.931020
151.200000 -0.931020 -0.931020
151.250000 -0.931019 -0.931020
151.300000 -0.931019 -0.931020
151.350000 -0.931019 -0.931020
151.400000 -0.931019 -0.931020
151.450000 -0.931018 -0.931020
151.500000 -0.931018 -0.931020
151.550000 -0.931018 -0.931020
151.600000 -0.931018 -0.931020
151.650000 -0.931018 -0.931020
151.700000 -0.931018 -0.931020
151.750000 -0.931018 -0.931020
151.800000 -0.931019 -0.931020
151.850000 -0.931019 -0.931020
151.900000 -0.931019 -0.931020
151.950000 -0.931019 -0.931020
152.000000 -0.931020 -0.931020
152.050000 -0.931020 -0.931020
152.100000 -0.931020 -0.931020
152.150000 -0.931020 -0.931020
152.200000 -0.931021 -0.931020
152.250000 -0.931021 -0.931020
152.300000 -0.931021 -0.931020
152.350000 -0.931022 -0.931020
152.400000 -0.931022 -0.931020
152.450000 -0.931022 -0.931020
152.500000 -0.931022 -0.931020
152.550000 -0.931022 -0.931020
152.600000 -0.931022 -0.931020
152.650000 -0.931022 -0.931020
152.700000 -0.931022 -0.931020
152.750000 -0.931022 -0.931020
152.800000 -0.931022 -0.931020
152.850000 -0.931021 -0.931020
152.900000 -0.931021 -0.931020
152.950000 -0.931021 -0.931020
153.000000 -0.931021 -0.931020
153.050000 -0.931020 -0.931020
153.100000 -0.931020 -0.931020
153.150000 -0.931020 -0.931020
153.200000 -0.931020 -0.931020
153.250000 -0.931019 -0.931020
153.300000 -0.931019 -0.931020
153.350000 -0.931019 -0.931020
153.400000 -0.931019 -0.931020
153.450000 -0.931019 -0.931020
153.500000 -0.931019 -0.931020
153.550000 -0.931019 -0.931020
153.600000 -0.931019 -0.931020
153.650000 -0.931019 -0.931020
153.700000 -0.931019 -0.931020
153.750000 -0.931019 -0.931020
153.800000 -0.931019 -0.931020
153.850000 -0.931019 -0.931020
153.900000 -0.931019 -0.931020
153.950000 -0.931019 -0.931020
154.000000 -0.931020 -0.931020
154.050000 -0.931020 -0.931020
154.100000 -0.931020 -0.931020
154.150000 -0.931020 -0.931020
154.200000 -0.931021 -0.931020
154.250000 -0.931021 -0.931020
154.300000 -0.931021 -0.931020
154.350000 -0.931021 -0.931020
154.400000 -0.931021 -0.931020
154.450000 -0.931022 -0.931020
154.500000 -0.931022 -0.931020
154.550000 -0.931022 -0.931020
154.600000 -0.931022 -0.931020
154.650000 -0.931022 -0.931020
154.700000 -0.931022 -0.931020
154.750000 -0.931021 -0.931020
154.800000 -0.931021 -0.931020
154.850000 -0.931021 -0.931020
154.900000 -0.931021 -0.931020
154.950000 -0.931021 -0.931020
155.000000 -0.931021 -0.931020
155.050000 -0.931020 -0.931020
155.100000 -0.931020 -0.931020
155.150000 -0.931020 -0.931020
155.200000 -0.931020 -0.931020
155.250000 -0.931019 -0.931020
155.300000 -0.931019 -0.931020
155.350000 -0.931019 -0.931020
155.400000 -0.931019 -0.931020
155.450000 -0.931019 -0.931020
155.500000 -0.931019 -0.931020
155.550000 -0.931019 -0.931020
155.600000 -0.931019 -0.931020
155.650000 -0.931019 -0.931020
155.700000 -0.931019 -0.931020
155.750000 -0.931019 -0.931020
155.800000 -0.931019 -0.931020
155.850000 -0.931019 -0.931020
155.900000 -0.931019 -0.931020
155.950000 -0.931020 -0.931020
156.000000 -0.931020 -0.931020
156.050000 -0.931020 -0.931020
156.100000 -0.931020 -0.931020
156.150000 -0.931020 -0.931020
156.200000 -0.931021 -0.931020
156.250000 -0.931021 -0.931020
156.300000 -0.931021 -0.931020
156.350000 -0.931021 -0.931020
156.400000 -0.931021 -0.931020
156.450000 -0.931021 -0.931020
156.500000 -0.931021 -0.931020
156.550000 -0.931021 -0.931020
156.600000 -0.931021 -0.931020
156.650000 -0.931021 -0.931020
156.700000 -0.931021 -0.931020
156.750000 -0.931021 -0.931020
156.800000 -0.931021 -0.931020
156.850000 -0.931021 -0.931020
156.900000 -0.931021 -0.931020
156.950000 -0.931021 -0.931020
157.000000 -0.931020 -0.931020
157.050000 -0.931020 -0.931020
157.100000 -0.931020 -0.931020
157.150000 -0.931020 -0.931020
157.200000 -0.931020 -0.931020
157.250000 -0.931020 -0.931020
157.300000 -0.931019 -0.931020
157.350000 -0.931019 -0.931020
157.400000 -0.931019 -0.931020
157.450000 -0.931019 -0.931020
157.500000 -0.931019 -0.931020
157.550000 -0.931019 -0.931020
157.600000 -0.931019 -0.931020
157.650000 -0.931019 -0.931020
157.700000 -0.931019 -0.931020
157.750000 -0.931019 -0.931020
157.800000 -0.931019 -0.931020
157.850000 -0.931019 -0.931020
157.900000 -0.931020 -0.931020
157.950000 -0.931020 -0.931020
158.000000 -0.931020 -0.931020
158.050000 -0.931020 -0.931020
158.100000 -0.931020 -0.931020
158.150000 -0.931020 -0.931020
158.200000 -0.931021 -0.931020
158.250000 -0.931021 -0.931020
158.300000 -0.931021 -0.931020
158.350000 -0.931021 -0.931020
158.400000 -0.931021 -0.931020
158.450000 -0.931021 -0.931020
158.500000 -0.931021 -0.931020
158.550000 -0.931021 -0.931020
158.600000 -0.931021 -0.931020
158.650000 -0.931021 -0.931020
158.700000 -0.931021 -0.931020
158.750000 -0.931021 -0.931020
158.800000 -0.931021 -0.931020
158.850000 -0.931021 -0.931020
158.900000 -0.931021 -0.931020
158.950000 -0.931021 -0.931020
159.000000 -0.931020 -0.931020
159.050000 -0.931020 -0.931020
159.100000 -0.931020 -0.931020
159.150000 -0.931020 -0.931020
159.200000 -0.931020 -0.931020
159.250000 -0.931020 -0.931020
159.300000 -0.931020 -0.931020
159.350000 -0.931019 -0.931020
159.400000 -0.931019 -0.931020
159.450000 -0.931019 -0.931020
159.500000 -0.931019 -0.931020
159.550000 -0.931019 -0.931020
159.600000 -0.931019 -0.931020
159.650000 -0.931019 -0.931020
159.700000 -0.931019 -0.931020
159.750000 -0.931019 -0.931020
159.800000 -0.931019 -0.931020
159.850000 -0.931020 -0.931020
159.900000 -0.931020 -0.931020
159.950000 -0.931020 -0.931020
160.000000 -0.931020 -0.931020
160.050000 -0.931020 -0.931020
160.100000 -0.931020 -0.931020
160.150000 -0.931020 -0.931020
160.200000 -0.931021 -0.931020
160.250000 -0.931021 -0.931020
160.300000 -0.931021 -0.931020
160.350000 -0.931021 -0.931020
160.400000 -0.931021 -0.931020
160.450000 -0.931021 -0.931020
160.500000 -0.931021 -0.931020
160.550000 -0.931021 -0.931020
160.600000 -0.931021 -0.931020
160.650000 -0.931021 -0.931020
160.700000 -0.931021 -0.931020
160.750000 -0.931021 -0.931020
160.800000 -0.931021 -0.931020
160.850000 -0.931021 -0.931020
160.900000 -0.931021 -0.931020
160.950000 -0.931020 -0.931020
161.000000 -0.931020 -0.931020
161.050000 -0.931020 -0.931020
161.100000 -0.931020 -0.931020
161.150000 -0.931020 -0.931020
161.200000 -0.931020 -0.931020
161.250000 -0.931020 -0.931020
161.300000 -0.931020 -0.931020
161.350000 -0.931020 -0.931020
161.400000 -0.931019 -0.931020
161.450000 -0.931019 -0.931020
161.500000 -0.931019 -0.931020
161.550000 -0.931019 -0.931020
161.600000 -0.931019 -0.931020
161.650000 -0.931019 -0.931020
161.700000 -0.931019 -0.931020
161.750000 -0.931020 -0.931020
161.800000 -0.931020 -0.931020
161.850000 -0.931020 -0.931020
161.900000 -0.931020 -0.931020
161.950000 -0.931020 -0.931020
162.000000 -0.931020 -0.931020
162.050000 -0.931020 -0.931020
162.100000 -0.931020 -0.931020
162.150000 -0.931020 -0.931020
162.200000 -0.931020 -0.931020
162.250000 -0.931021 -0.931020
162.300000 -0.931021 -0.931020
162.350000 -0.931021 -0.931020
162.400000 -0.931021 -0.931020
162.450000 -0.931021 -0.931020
162.500000 -0.931021 -0.931020
162.550000 -0.931021 -0.931020
162.600000 -0.931021 -0.931020
162.650000 -0.931021 -0.931020
162.700000 -0.931021 -0.931020
162.750000 -0.931021 -0.931020
162.800000 -0.931021 -0.931020
162.850000 -0.931021 -0.931020
162.900000 -0.931021 -0.931020
162.950000 -0.931020 -0.931020
163.000000 -0.931020 -0.931020
163.050000 -0.931020 -0.931020
163.100000 -0.931020 -0.931020
163.150000 -0.931020 -0.931020
163.200000 -0.931020 -0.931020
163.250000 -0.931020 -0.931020
163.300000 -0.931020 -0.931020
163.350000 -0.931020 -0.931020
163.400000 -0.931020 -0.931020
163.450000 -0.931020 -0.931020
163.500000 -0.931020 -0.931020
163.550000 -0.931020 -0.931020
163.600000 -0.931020 -0.931020
163.650000 -0.931020 -0.931020
163.700000 -0.931020 -0.931020
163.750000 -0.931020 -0.931020
163.800000 -0.931020 -0.931020
163.850000 -0.931020 -0.931020
163.900000 -0.931020 -0.931020
163.950000 -0.931020 -0.931020
164.000000 -0.931020 -0.931020
164.050000 -0.931020 -0.931020
164.100000 -0.931020 -0.931020
164.150000 -0.931020 -0.931020
164.200000 -0.931020 -0.931020
164.250000 -0.931021 -0.931020
164.300000 -0.931021 -0.931020
164.350000 -0.931021 -0.931020
164.400000 -0.931021 -0.931020
164.450000 -0.931021 -0.931020
164.500000 -0.931021 -0.931020
164.550000 -0.931021 -0.931020
164.600000 -0.931021 -0.931020
164.650000 -0.931021 -0.931020
164.700000 -0.931021 -0.931020
164.750000 -0.931021 -0.931020
164.800000 -0.931021 -0.931020
164.850000 -0.931021 -0.931020
164.900000 -0.931020 -0.931020
164.950000 -0.931020 -0.931020
165.000000 -0.931020 -0.931020
165.050000 -0.931020 -0.931020
165.100000 -0.931020 -0.931020
165.150000 -0.931020 -0.931020
165.200000 -0.931020 -0.931020
165.250000 -0.931020 -0.931020
165.300000 -0.931020 -0.931020
165.350000 -0.931020 -0.931020
165.400000 -0.931020 -0.931020
165.450000 -0.931020 -0.931020
165.500000 -0.931020 -0.931020
165.550000 -0.931020 -0.931020
165.600000 -0.931020 -0.931020
165.650000 -0.931020 -0.931020
165.700000 -0.931020 -0.931020
165.750000 -0.931020 -0.931020
165.800000 -0.931020 -0.931020
165.850000 -0.931020 -0.931020
165.900000 -0.931020 -0.931020
165.950000 -0.931020 -0.931020
166.000000 -0.931020 -0.931020
166.050000 -0.931020 -0.931020
166.100000 -0.931020 -0.931020
166.150000 -0.931020 -0.931020
166.200000 -0.931020 -0.931020
166.250000 -0.931020 -0.931020
166.300000 -0.931021 -0.931020
166.350000 -0.931021 -0.931020
166.400000 -0.931021 -0.931020
166.450000 -0.931021 -0.931020
166.500000 -0.931021 -0.931020
166.550000 -0.931021 -0.931020
166.600000 -0.931021 -0.931020
166.650000 -0.931021 -0.931020
166.700000 -0.931021 -0.931020
166.750000 -0.931021 -0.931020
166.800000 -0.931021 -0.931020
166.850000 -0.931020 -0.931020
166.900000 -0.931020 -0.931020
166.950000 -0.931020 -0.931020
167.000000 -0.931020 -0.931020
167.050000 -0.931020 -0.931020
167.100000 -0.931020 -0.931020
167.150000 -0.931020 -0.931020
167.200000 -0.931020 -0.931020
167.250000 -0.931020 -0.931020
167.300000 -0.931020 -0.931020
167.350000 -0.931020 -0.931020
167.400000 -0.931020 -0.931020
167.450000 -0.931020 -0.931020
167.500000 -0.931020 -0.931020
167.550000 -0.931020 -0.931020
167.600000 -0.931020 -0.931020
167.650000 -0.931020 -0.931020
167.700000 -0.931020 -0.931020
167.750000 -0.931020 -0.931020
167.800000 -0.931020 -0.931020
167.850000 -0.931020 -0.931020
167.900000 -0.931020 -0.931020
167.950000 -0.931020 -0.931020
168.000000 -0.931020 -0.931020
168.050000 -0.931020 -0.931020
168.100000 -0.931020 -0.931020
168.150000 -0.931020 -0.931020
168.200000 -0.931020 -0.931020
168.250000 -0.931020 -0.931020
168.300000 -0.931020 -0.931020
168.350000 -0.931021 -0.931020
168.400000 -0.931021 -0.931020
168.450000 -0.931021 -0.931020
168.500000 -0.931021 -0.931020
168.550000 -0.931021 -0.931020
168.600000 -0.931021 -0.931020
168.650000 -0.931021 -0.931020
168.700000 -0.931021 -0.931020
168.750000 -0.931021 -0.931020
168.800000 -0.931020 -0.931020
168.850000 -0.931020 -0.931020
168.900000 -0.931020 -0.931020
168.950000 -0.931020 -0.931020
169.000000 -0.931020 -0.931020
169.050000 -0.931020 -0.931020
169.100000 -0.931020 -0.931020
169.150000 -0.931020 -0.931020
169.200000 -0.931020 -0.931020
169.250000 -0.931020 -0.931020
169.300000 -0.931020 -0.931020
169.350000 -0.931020 -0.931020
169.400000 -0.931020 -0.931020
169.450000 -0.931020 -0.931020
169.500000 -0.931020 -0.931020
169.550000 -0.931020 -0.931020
169.600000 -0.931020 -0.931020
169.650000 -0.931020 -0.931020
169.700000 -0.931020 -0.931020
169.750000 -0.931020 -0.931020
169.800000 -0.931020 -0.931020
169.850000 -0.931020 -0.931020
169.900000 -0.931020 -0.931020
169.950000 -0.931020 -0.931020
170.000000 -0.931020 -0.931020
170.050000 -0.931020 -0.931020
170.100000 -0.931020 -0.931020
170.150000 -0.931020 -0.931020
170.200000 -0.931020 -0.931020
170.250000 -0.931020 -0.931020
170.300000 -0.931020 -0.931020
170.350000 -0.931020 -0.931020
170.400000 -0.931020 -0.931020
170.450000 -0.931021 -0.931020
170.500000 -0.931021 -0.931020
170.550000 -0.931021 -0.931020
170.600000 -0.931021 -0.931020
170.650000 -0.931021 -0.931020
170.700000 -0.931020 -0.931020
170.750000 -0.931020 -0.931020
170.800000 -0.931020 -0.931020
170.850000 -0.931020 -0.931020
170.900000 -0.931020 -0.931020
170.950000 -0.931020 -0.931020
171.000000 -0.931020 -0.931020
171.050000 -0.931020 -0.931020
171.100000 -0.931020 -0.931020
171.150000 -0.931020 -0.931020
171.200000 -0.931020 -0.931020
171.250000 -0.931020 -0.931020
171.300000 -0.931020 -0.931020
171.350000 -0.931020 -0.931020
171.400000 -0.931020 -0.931020
171.450000 -0.931020 -0.931020
171.500000 -0.931020 -0.931020
171.550000 -0.931020 -0.931020
171.600000 -0.931020 -0.931020
171.650000 -0.931020 -0.931020
171.700000 -0.931020 -0.931020
171.750000 -0.931020 -0.931020
171.800000 -0.931020 -0.931020
171.850000 -0.931020 -0.931020
171.900000 -0.931020 -0.931020
171.950000 -0.931020 -0.931020
172.000000 -0.931020 -0.931020
172.050000 -0.931020 -0.931020
172.100000 -0.931020 -0.931020
172.150000 -0.931020 -0.931020
172.200000 -0.931020 -0.931020
172.250000 -0.931020 -0.931020
172.300000 -0.931020 -0.931020
172.350000 -0.931020 -0.931020
172.400000 -0.931020 -0.931020
172.450000 -0.931020 -0.931020
172.500000 -0.931020 -0.931020
172.550000 -0.931020 -0.931020
172.600000 -0.931020 -0.931020
172.650000 -0.931020 -0.931020
172.700000 -0.931020 -0.931020
172.750000 -0.931020 -0.931020
172.800000 -0.931020 -0.931020
172.850000 -0.931020 -0.931020
172.900000 -0.931020 -0.931020
172.950000 -0.931020 -0.931020
173.000000 -0.931020 -0.931020
173.050000 -0.931020 -0.931020
173.100000 -0.931020 -0.931020
173.150000 -0.931020 -0.931020
173.200000 -0.931020 -0.931020
173.250000 -0.931020 -0.931020
173.300000 -0.931020 -0.931020
173.350000 -0.931020 -0.931020
173.400000 -0.931020 -0.931020
173.450000 -0.931020 -0.931020
173.500000 -0.931020 -0.931020
173.550000 -0.931020 -0.931020
173.600000 -0.931020 -0.931020
173.650000 -0.931020 -0.931020
173.700000 -0.931020 -0.931020
173.750000 -0.931020 -0.931020
173.800000 -0.931020 -0.931020
173.850000 -0.931020 -0.931020
173.900000 -0.931020 -0.931020
173.950000 -0.931020 -0.931020
174.000000 -0.931020 -0.931020
174.050000 -0.931020 -0.931020
174.100000 -0.931020 -0.931020
174.150000 -0.931020 -0.931020
174.200000 -0.931020 -0.931020
174.250000 -0.931020 -0.931020
174.300000 -0.931020 -0.931020
174.350000 -0.931020 -0.931020
174.400000 -0.931020 -0.931020
174.450000 -0.931020 -0.931020
174.500000 -0.931020 -0.931020
174.550000 -0.931020 -0.931020
174.600000 -0.931020 -0.931020
174.650000 -0.931020 -0.931020
174.700000 -0.931020 -0.931020
174.750000 -0.931020 -0.931020
174.800000 -0.931020 -0.931020
174.850000 -0.931020 -0.931020
174.900000 -0.931020 -0.931020
174.950000 -0.931020 -0.931020
175.000000 -0.931020 -0.931020
175.050000 -0.931020 -0.931020
175.100000 -0.931020 -0.931020
175.150000 -0.931020 -0.931020
175.200000 -0.931020 -0.931020
175.250000 -0.931020 -0.931020
175.300000 -0.931020 -0.931020
175.350000 -0.931020 -0.931020
175.400000 -0.931020 -0.931020
175.450000 -0.931020 -0.931020
175.500000 -0.931020 -0.931020
175.550000 -0.931020 -0.931020
175.600000 -0.931020 -0.931020
175.650000 -0.931020 -0.931020
175.700000 -0.931020 -0.931020
175.750000 -0.931020 -0.931020
175.800000 -0.931020 -0.931020
175.850000 -0.931020 -0.931020
175.900000 -0.931020 -0.931020
175.950000 -0.931020 -0.931020
176.000000 -0.931020 -0.931020
176.050000 -0.931020 -0.931020
176.100000 -0.931020 -0.931020
176.150000 -0.931020 -0.931020
176.200000 -0.931020 -0.931020
176.250000 -0.931020 -0.931020
176.300000 -0.931020 -0.931020
176.350000 -0.931020 -0.931020
176.400000 -0.931020 -0.931020
176.450000 -0.931020 -0.931020
176.500000 -0.931020 -0.931020
176.550000 -0.931020 -0.931020
176.600000 -0.931020 -0.931020
176.650000 -0.931020 -0.931020
176.700000 -0.931020 -0.931020
176.750000 -0.931020 -0.931020
176.800000 -0.931020 -0.931020
176.850000 -0.931020 -0.931020
176.900000 -0.931020 -0.931020
176.950000 -0.931020 -0.931020
177.000000 -0.931020 -0.931020
177.050000 -0.931020 -0.931020
177.100000 -0.931020 -0.931020
177.150000 -0.931020 -0.931020
177.200000 -0.931020 -0.931020
177.250000 -0.931020 -0.931020
177.300000 -0.931020 -0.931020
177.350000 -0.931020 -0.931020
177.400000 -0.931020 -0.931020
177.450000 -0.931020 -0.931020
177.500000 -0.931020 -0.931020
177.550000 -0.931020 -0.931020
177.600000 -0.931020 -0.931020
177.650000 -0.931020 -0.931020
177.700000 -0.931020 -0.931020
177.750000 -0.931020 -0.931020
177.800000 -0.931020 -0.931020
177.850000 -0.931020 -0.931020
177.900000 -0.931020 -0.931020
177.950000 -0.931020 -0.931020
178.000000 -0.931020 -0.931020
178.050000 -0.931020 -0.931020
178.100000 -0.931020 -0.931020
178.150000 -0.931020 -0.931020
178.200000 -0.931020 -0.931020
178.250000 -0.931020 -0.931020
178.300000 -0.931020 -0.931020
178.350000 -0.931020 -0.931020
178.400000 -0.931020 -0.931020
178.450000 -0.931020 -0.931020
178.500000 -0.931020 -0.931020
178.550000 -0.931020 -0.931020
178.600000 -0.931020 -0.931020
178.650000 -0.931020 -0.931020
178.700000 -0.931020 -0.931020
178.750000 -0.931020 -0.931020
178.800000 -0.931020 -0.931020
178.850000 -0.931020 -0.931020
178.900000 -0.931020 -0.931020
178.950000 -0.931020 -0.931020
179.000000 -0.931020 -0.931020
179.050000 -0.931020 -0.931020
179.100000 -0.931020 -0.931020
179.150000 -0.931020 -0.931020
179.200000 -0.931020 -0.931020
179.250000 -0.931020 -0.931020
179.300000 -0.931020 -0.931020
179.350000 -0.931020 -0.931020
179.400000 -0.931020 -0.931020
179.450000 -0.931020 -0.931020
179.500000 -0.931020 -0.931020
179.550000 -0.931020 -0.931020
179.600000 -0.931020 -0.931020
179.650000 -0.931020 -0.931020
179.700000 -0.931020 -0.931020
179.750000 -0.931020 -0.931020
179.800000 -0.931020 -0.931020
179.850000 -0.931020 -0.931020
179.900000 -0.931020 -0.931020
179.950000 -0.931020 -0.931020
180.000000 -0.931020 -0.931020
180.050000 -0.931020 -0.931020
180.100000 -0.931020 -0.931020
180.150000 -0.931020 -0.931020
180.200000 -0.931020 -0.931020
180.250000 -0.931020 -0.931020
180.300000 -0.931020 -0.931020
180.350000 -0.931020 -0.931020
180.400000 -0.931020 -0.931020
180.450000 -0.931020 -0.931020
180.500000 -0.931020 -0.931020
180.550000 -0.931020 -0.931020
180.600000 -0.931020 -0.931020
180.650000 -0.931020 -0.931020
180.700000 -0.931020 -0.931020
180.750000 -0.931020 -0.931020
180.800000 -0.931020 -0.931020
180.850000 -0.931020 -0.931020
180.900000 -0.931020 -0.931020
180.950000 -0.931020 -0.931020
181.000000 -0.931020 -0.931020
181.050000 -0.931020 -0.931020
181.100000 -0.931020 -0.931020
181.150000 -0.931020 -0.931020
181.200000 -0.931020 -0.931020
181.250000 -0.931020 -0.931020
181.300000 -0.931020 -0.931020
181.350000 -0.931020 -0.931020
181.400000 -0.931020 -0.931020
181.450000 -0.931020 -0.931020
181.500000 -0.931020 -0.931020
181.550000 -0.931020 -0.931020
181.600000 -0.931020 -0.931020
181.650000 -0.931020 -0.931020
181.700000 -0.931020 -0.931020
181.750000 -0.931020 -0.931020
181.800000 -0.931020 -0.931020
181.850000 -0.931020 -0.931020
181.900000 -0.931020 -0.931020
181.950000 -0.931020 -0.931020
182.000000 -0.931020 -0.931020
182.050000 -0.931020 -0.931020
182.100000 -0.931020 -0.931020
182.150000 -0.931020 -0.931020
182.200000 -0.931020 -0.931020
182.250000 -0.931020 -0.931020
182.300000 -0.931020 -0.931020
182.350000 -0.931020 -0.931020
182.400000 -0.931020 -0.931020
182.450000 -0.931020 -0.931020
182.500000 -0.931020 -0.931020
182.550000 -0.931020 -0.931020
182.600000 -0.931020 -0.931020
182.650000 -0.931020 -0.931020
182.700000 -0.931020 -0.931020
182.750000 -0.931020 -0.931020
182.800000 -0.931020 -0.931020
182.850000 -0.931020 -0.931020
182.900000 -0.931020 -0.931020
182.950000 -0.931020 -0.931020
183.000000 -0.931020 -0.931020
183.050000 -0.931020 -0.931020
183.100000 -0.931020 -0.931020
183.150000 -0.931020 -0.931020
183.200000 -0.931020 -0.931020
183.250000 -0.931020 -0.931020
183.300000 -0.931020 -0.931020
183.350000 -0.931020 -0.931020
183.400000 -0.931020 -0.931020
183.450000 -0.931020 -0.931020
183.500000 -0.931020 -0.931020
183.550000 -0.931020 -0.931020
183.600000 -0.931020 -0.931020
183.650000 -0.931020 -0.931020
183.700000 -0.931020 -0.931020
183.750000 -0.931020 -0.931020
183.800000 -0.931020 -0.931020
183.850000 -0.931020 -0.931020
183.900000 -0.931020 -0.931020
183.950000 -0.931020 -0.931020
184.000000 -0.931020 -0.931020
184.050000 -0.931020 -0.931020
184.100000 -0.931020 -0.931020
184.150000 -0.931020 -0.931020
184.200000 -0.931020 -0.931020
184.250000 -0.931020 -0.931020
184.300000 -0.931020 -0.931020
184.350000 -0.931020 -0.931020
184.400000 -0.931020 -0.931020
184.450000 -0.931020 -0.931020
184.500000 -0.931020 -0.931020
184.550000 -0.931020 -0.931020
184.600000 -0.931020 -0.931020
184.650000 -0.931020 -0.931020
184.700000 -0.931020 -0.931020
184.750000 -0.931020 -0.931020
184.800000 -0.931020 -0.931020
184.850000 -0.931020 -0.931020
184.900000 -0.931020 -0.931020
184.950000 -0.931020 -0.931020
185.000000 -0.931020 -0.931020
185.050000 -0.931020 -0.931020
185.100000 -0.931020 -0.931020
185.150000 -0.931020 -0.931020
185.200000 -0.931020 -0.931020
185.250000 -0.931020 -0.931020
185.300000 -0.931020 -0.931020
185.350000 -0.931020 -0.931020
185.400000 -0.931020 -0.931020
185.450000 -0.931020 -0.931020
185.500000 -0.931020 -0.931020
185.550000 -0.931020 -0.931020
185.600000 -0.931020 -0.931020
185.650000 -0.931020 -0.931020
185.700000 -0.931020 -0.931020
185.750000 -0.931020 -0.931020
185.800000 -0.931020 -0.931020
185.850000 -0.931020 -0.931020
185.900000 -0.931020 -0.931020
185.950000 -0.931020 -0.931020
186.000000 -0.931020 -0.931020
186.050000 -0.931020 -0.931020
186.100000 -0.931020 -0.931020
186.150000 -0.931020 -0.931020
186.200000 -0.931020 -0.931020
186.250000 -0.931020 -0.931020
186.300000 -0.931020 -0.931020
186.350000 -0.931020 -0.931020
186.400000 -0.931020 -0.931020
186.450000 -0.931020 -0.931020
186.500000 -0.931020 -0.931020
186.550000 -0.931020 -0.931020
186.600000 -0.931020 -0.931020
186.650000 -0.931020 -0.931020
186.700000 -0.931020 -0.931020
186.750000 -0.931020 -0.931020
186.800000 -0.931020 -0.931020
186.850000 -0.931020 -0.931020
186.900000 -0.931020 -0.931020
186.950000 -0.931020 -0.931020
