fit_time[ns] Functional_fit[mV] Thermal_fit[mV]
3.600000 38.005736 36.324926
3.650000 37.645258 35.656937
3.700000 37.242467 35.000965
3.750000 36.790906 34.356779
3.800000 36.285753 33.724152
3.850000 35.723931 33.102863
3.900000 35.104170 32.492694
3.950000 34.427018 31.893434
4.000000 33.694812 31.304873
4.050000 32.911596 30.726810
4.100000 32.082995 30.159043
4.150000 31.216056 29.601379
4.200000 30.319042 29.053625
4.250000 29.401206 28.515595
4.300000 28.472533 27.987104
4.350000 27.543471 27.467975
4.400000 26.624650 26.958030
4.450000 25.726593 26.457097
4.500000 24.859441 25.965008
4.550000 24.032686 25.481597
4.600000 23.254919 25.006702
4.650000 22.533612 24.540164
4.700000 21.874923 24.081829
4.750000 21.283543 23.631542
4.800000 20.762579 23.189156
4.850000 20.313478 22.754524
4.900000 19.936002 22.327501
4.950000 19.628240 21.907949
5.000000 19.386666 21.495729
5.050000 19.206244 21.090706
5.100000 19.080561 20.692747
5.150000 19.002008 20.301724
5.200000 18.961978 19.917508
5.250000 18.951102 19.539975
5.300000 18.959492 19.169004
5.350000 18.977003 18.804474
5.400000 18.993495 18.446267
5.450000 18.999098 18.094270
5.500000 18.984463 17.748367
5.550000 18.941001 17.408450
5.600000 18.861101 17.074409
5.650000 18.738314 16.746139
5.700000 18.567518 16.423533
5.750000 18.345031 16.106491
5.800000 18.068702 15.794912
5.850000 17.737948 15.488697
5.900000 17.353757 15.187750
5.950000 16.918648 14.891976
6.000000 16.436590 14.601282
6.050000 15.912887 14.315576
6.100000 15.354026 14.034771
6.150000 14.767494 13.758777
6.200000 14.161577 13.487509
6.250000 13.545128 13.220882
6.300000 12.927336 12.958814
6.350000 12.317477 12.701223
6.400000 11.724667 12.448030
6.450000 11.157627 12.199156
6.500000 10.624450 11.954525
6.550000 10.132396 11.714061
6.600000 9.687705 11.477691
6.650000 9.295439 11.245343
6.700000 8.959355 11.016944
6.750000 8.681815 10.792425
6.800000 8.463736 10.571717
6.850000 8.304570 10.354755
6.900000 8.202329 10.141470
6.950000 8.153649 9.931799
7.000000 8.153880 9.725679
7.050000 8.197223 9.523046
7.100000 8.276884 9.323840
7.150000 8.385259 9.128000
7.200000 8.514137 8.935468
7.250000 8.654918 8.746185
7.300000 8.798839 8.560095
7.350000 8.937207 8.377142
7.400000 9.061617 8.197271
7.450000 9.164177 8.020428
7.500000 9.237702 7.846562
7.550000 9.275900 7.675619
7.600000 9.273529 7.507549
7.650000 9.226521 7.342302
7.700000 9.132083 7.179829
7.750000 8.988758 7.020082
7.800000 8.796448 6.863014
7.850000 8.556413 6.708578
7.900000 8.271221 6.556728
7.950000 7.944671 6.407421
8.000000 7.581684 6.260611
8.050000 7.188165 6.116256
8.100000 6.770837 5.974314
8.150000 6.337064 5.834743
8.200000 5.894646 5.697501
8.250000 5.451614 5.562550
8.300000 5.016015 5.429849
8.350000 4.595703 5.299360
8.400000 4.198130 5.171045
8.450000 3.830156 5.044867
8.500000 3.497872 4.920788
8.550000 3.206444 4.798773
8.600000 2.959986 4.678787
8.650000 2.761456 4.560795
8.700000 2.612588 4.444762
8.750000 2.513857 4.330656
8.800000 2.464470 4.218443
8.850000 2.462399 4.108090
8.900000 2.504441 3.999568
8.950000 2.586311 3.892843
9.000000 2.702758 3.787886
9.050000 2.847715 3.684666
9.100000 3.014456 3.583154
9.150000 3.195781 3.483321
9.200000 3.384204 3.385138
9.250000 3.572154 3.288578
9.300000 3.752171 3.193612
9.350000 3.917098 3.100213
9.400000 4.060270 3.008356
9.450000 4.175678 2.918014
9.500000 4.258129 2.829162
9.550000 4.303365 2.741773
9.600000 4.308177 2.655824
9.650000 4.270474 2.571290
9.700000 4.189330 2.488148
9.750000 4.065002 2.406373
9.800000 3.898909 2.325943
9.850000 3.693591 2.246834
9.900000 3.452630 2.169026
9.950000 3.180548 2.092495
10.000000 2.882683 2.017221
10.050000 2.565041 1.943182
10.100000 2.234135 1.870358
10.150000 1.896808 1.798728
10.200000 1.560052 1.728271
10.250000 1.230825 1.658969
10.300000 0.915863 1.590802
10.350000 0.621513 1.523751
10.400000 0.353563 1.457798
10.450000 0.117094 1.392923
10.500000 -0.083643 1.329109
10.550000 -0.245337 1.266338
10.600000 -0.365699 1.204592
10.650000 -0.443507 1.143856
10.700000 -0.478639 1.084111
10.750000 -0.472065 1.025341
10.800000 -0.425813 0.967530
10.850000 -0.342909 0.910662
10.900000 -0.227293 0.854720
10.950000 -0.083706 0.799691
11.000000 0.082435 0.745558
11.050000 0.265191 0.692307
11.100000 0.458249 0.639923
11.150000 0.655102 0.588391
11.200000 0.849209 0.537698
11.250000 1.034174 0.487829
11.300000 1.203910 0.438771
11.350000 1.352794 0.390511
11.400000 1.475810 0.343034
11.450000 1.568681 0.296328
11.500000 1.627966 0.250381
11.550000 1.651153 0.205180
11.600000 1.636712 0.160711
11.650000 1.584127 0.116965
11.700000 1.493907 0.073927
11.750000 1.367557 0.031587
11.800000 1.207538 -0.010067
11.850000 1.017193 -0.051046
11.900000 0.800648 -0.091361
11.950000 0.562707 -0.131024
12.000000 0.308711 -0.170045
12.050000 0.044403 -0.208435
12.100000 -0.224233 -0.246204
12.150000 -0.491125 -0.283362
12.200000 -0.750279 -0.319919
12.250000 -0.995929 -0.355886
12.300000 -1.222690 -0.391272
12.350000 -1.425698 -0.426086
12.400000 -1.600730 -0.460339
12.450000 -1.744311 -0.494038
12.500000 -1.853804 -0.527194
12.550000 -1.927466 -0.559815
12.600000 -1.964493 -0.591910
12.650000 -1.965031 -0.623488
12.700000 -1.930168 -0.654557
12.750000 -1.861896 -0.685125
12.800000 -1.763054 -0.715201
12.850000 -1.637248 -0.744792
12.900000 -1.488750 -0.773908
12.950000 -1.322383 -0.802555
13.000000 -1.143388 -0.830740
13.050000 -0.957286 -0.858473
13.100000 -0.769733 -0.885760
13.150000 -0.586368 -0.912608
13.200000 -0.412668 -0.939024
13.250000 -0.253803 -0.965017
13.300000 -0.114508 -0.990591
13.350000 0.001043 -1.015755
13.400000 0.089336 -1.040515
13.450000 0.147611 -1.064878
13.500000 0.173921 -1.088850
13.550000 0.167185 -1.112437
13.600000 0.127201 -1.135646
13.650000 0.054652 -1.158483
13.700000 -0.048924 -1.180954
13.750000 -0.181178 -1.203065
13.800000 -0.339016 -1.224822
13.850000 -0.518689 -1.246230
13.900000 -0.715897 -1.267296
13.950000 -0.925901 -1.288024
14.000000 -1.143653 -1.308421
14.050000 -1.363934 -1.328491
14.100000 -1.581484 -1.348240
14.150000 -1.791150 -1.367674
14.200000 -1.988011 -1.386796
14.250000 -2.167512 -1.405613
14.300000 -2.325577 -1.424130
14.350000 -2.458713 -1.442350
14.400000 -2.564101 -1.460280
14.450000 -2.639656 -1.477923
14.500000 -2.684087 -1.495285
14.550000 -2.696917 -1.512369
14.600000 -2.678494 -1.529181
14.650000 -2.629974 -1.545725
14.700000 -2.553286 -1.562004
14.750000 -2.451073 -1.578024
14.800000 -2.326622 -1.593789
14.850000 -2.183772 -1.609303
14.900000 -2.026805 -1.624569
14.950000 -1.860339 -1.639592
15.000000 -1.689196 -1.654376
15.050000 -1.518281 -1.668924
15.100000 -1.352450 -1.683241
15.150000 -1.196384 -1.697330
15.200000 -1.054468 -1.711195
15.250000 -0.930676 -1.724839
15.300000 -0.828475 -1.738266
15.350000 -0.750734 -1.751479
15.400000 -0.699656 -1.764483
15.450000 -0.676723 -1.777279
15.500000 -0.682663 -1.789873
15.550000 -0.717440 -1.802266
15.600000 -0.780256 -1.814462
15.650000 -0.869579 -1.826465
15.700000 -0.983192 -1.838277
15.750000 -1.118251 -1.849902
15.800000 -1.271367 -1.861342
15.850000 -1.438699 -1.872600
15.900000 -1.616059 -1.883680
15.950000 -1.799019 -1.894584
16.000000 -1.983036 -1.905315
16.050000 -2.163566 -1.915876
16.100000 -2.336187 -1.926269
16.150000 -2.496711 -1.936498
16.200000 -2.641296 -1.946565
16.250000 -2.766537 -1.956472
16.300000 -2.869561 -1.966222
16.350000 -2.948091 -1.975818
16.400000 -3.000504 -1.985262
16.450000 -3.025871 -1.994556
16.500000 -3.023972 -2.003704
16.550000 -2.995298 -2.012706
16.600000 -2.941036 -2.021566
16.650000 -2.863029 -2.030286
16.700000 -2.763724 -2.038868
16.750000 -2.646103 -2.047314
16.800000 -2.513605 -2.055627
16.850000 -2.370027 -2.063808
16.900000 -2.219426 -2.071860
16.950000 -2.066007 -2.079785
17.000000 -1.914017 -2.087585
17.050000 -1.767629 -2.095261
17.100000 -1.630837 -2.102816
17.150000 -1.507351 -2.110252
17.200000 -1.400499 -2.117570
17.250000 -1.313149 -2.124773
17.300000 -1.247634 -2.131863
17.350000 -1.205693 -2.138840
17.400000 -1.188434 -2.145707
17.450000 -1.196307 -2.152466
17.500000 -1.229098 -2.159119
17.550000 -1.285939 -2.165666
17.600000 -1.365336 -2.172110
17.650000 -1.465214 -2.178453
17.700000 -1.582973 -2.184696
17.750000 -1.715562 -2.190840
17.800000 -1.859562 -2.196888
17.850000 -2.011278 -2.202840
17.900000 -2.166838 -2.208699
17.950000 -2.322294 -2.214465
18.000000 -2.473729 -2.220141
18.050000 -2.617357 -2.225727
18.100000 -2.749624 -2.231225
18.150000 -2.867295 -2.236637
18.200000 -2.967539 -2.241964
18.250000 -3.048002 -2.247207
18.300000 -3.106861 -2.252367
18.350000 -3.142870 -2.257446
18.400000 -3.155391 -2.262446
18.450000 -3.144399 -2.267366
18.500000 -3.110487 -2.272210
18.550000 -3.054838 -2.276977
18.600000 -2.979197 -2.281670
18.650000 -2.885815 -2.286288
18.700000 -2.777389 -2.290835
18.750000 -2.656990 -2.295309
18.800000 -2.527974 -2.299714
18.850000 -2.393900 -2.304049
18.900000 -2.258430 -2.308317
18.950000 -2.125232 -2.312517
19.000000 -1.997888 -2.316651
19.050000 -1.879796 -2.320721
19.100000 -1.774088 -2.324727
19.150000 -1.683544 -2.328670
19.200000 -1.610527 -2.332551
19.250000 -1.556920 -2.336371
19.300000 -1.524085 -2.340131
19.350000 -1.512826 -2.343832
19.400000 -1.523376 -2.347476
19.450000 -1.555392 -2.351062
19.500000 -1.607974 -2.354592
19.550000 -1.679683 -2.358067
19.600000 -1.768594 -2.361487
19.650000 -1.872342 -2.364854
19.700000 -1.988188 -2.368168
19.750000 -2.113099 -2.371430
19.800000 -2.243821 -2.374641
19.850000 -2.376976 -2.377802
19.900000 -2.509141 -2.380913
19.950000 -2.636946 -2.383976
20.000000 -2.757157 -2.386990
20.050000 -2.866763 -2.389958
20.100000 -2.963052 -2.392879
20.150000 -3.043677 -2.395755
20.200000 -3.106719 -2.398585
20.250000 -3.150732 -2.401371
20.300000 -3.174778 -2.404114
20.350000 -3.178447 -2.406814
20.400000 -3.161866 -2.409471
20.450000 -3.125687 -2.412087
20.500000 -3.071072 -2.414663
20.550000 -2.999654 -2.417198
20.600000 -2.913495 -2.419693
20.650000 -2.815025 -2.422149
20.700000 -2.706977 -2.424567
20.750000 -2.592315 -2.426948
20.800000 -2.474152 -2.429291
20.850000 -2.355669 -2.431597
20.900000 -2.240031 -2.433868
20.950000 -2.130305 -2.436103
21.000000 -2.029378 -2.438303
21.050000 -1.939885 -2.440469
21.100000 -1.864141 -2.442601
21.150000 -1.804085 -2.444700
21.200000 -1.761227 -2.446766
21.250000 -1.736617 -2.448800
21.300000 -1.730817 -2.450802
21.350000 -1.743894 -2.452773
21.400000 -1.775416 -2.454714
21.450000 -1.824474 -2.456624
21.500000 -1.889703 -2.458504
21.550000 -1.969325 -2.460355
21.600000 -2.061199 -2.462177
21.650000 -2.162877 -2.463971
21.700000 -2.271670 -2.465737
21.750000 -2.384725 -2.467475
21.800000 -2.499096 -2.469186
21.850000 -2.611825 -2.470871
21.900000 -2.720015 -2.472529
21.950000 -2.820912 -2.474162
22.000000 -2.911972 -2.475769
22.050000 -2.990926 -2.477351
22.100000 -3.055836 -2.478908
22.150000 -3.105150 -2.480442
22.200000 -3.137732 -2.481951
22.250000 -3.152891 -2.483437
22.300000 -3.150400 -2.484900
22.350000 -3.130492 -2.486340
22.400000 -3.093856 -2.487758
22.450000 -3.041611 -2.489153
22.500000 -2.975277 -2.490527
22.550000 -2.896732 -2.491880
22.600000 -2.808158 -2.493211
22.650000 -2.711982 -2.494522
22.700000 -2.610814 -2.495813
22.750000 -2.507373 -2.497083
22.800000 -2.404417 -2.498334
22.850000 -2.304671 -2.499565
22.900000 -2.210756 -2.500777
22.950000 -2.125118 -2.501971
23.000000 -2.049969 -2.503145
23.050000 -1.987232 -2.504302
23.100000 -1.938486 -2.505441
23.150000 -1.904934 -2.506561
23.200000 -1.887372 -2.507665
23.250000 -1.886171 -2.508751
23.300000 -1.901269 -2.509821
23.350000 -1.932179 -2.510874
23.400000 -1.978002 -2.511911
23.450000 -2.037456 -2.512931
23.500000 -2.108910 -2.513936
23.550000 -2.190431 -2.514925
23.600000 -2.279837 -2.515899
23.650000 -2.374753 -2.516857
23.700000 -2.472681 -2.517801
23.750000 -2.571057 -2.518730
23.800000 -2.667328 -2.519645
23.850000 -2.759014 -2.520546
23.900000 -2.843771 -2.521432
23.950000 -2.919455 -2.522305
24.000000 -2.984175 -2.523165
24.050000 -3.036339 -2.524011
24.100000 -3.074698 -2.524844
24.150000 -3.098371 -2.525664
24.200000 -3.106869 -2.526471
24.250000 -3.100102 -2.527266
24.300000 -3.078382 -2.528049
24.350000 -3.042408 -2.528819
24.400000 -2.993248 -2.529578
24.450000 -2.932307 -2.530324
24.500000 -2.861286 -2.531060
24.550000 -2.782139 -2.531783
24.600000 -2.697017 -2.532496
24.650000 -2.608211 -2.533198
24.700000 -2.518093 -2.533888
24.750000 -2.429049 -2.534568
24.800000 -2.343421 -2.535238
24.850000 -2.263443 -2.535897
24.900000 -2.191184 -2.536546
24.950000 -2.128495 -2.537185
25.000000 -2.076965 -2.537814
25.050000 -2.037876 -2.538433
25.100000 -2.012176 -2.539043
25.150000 -2.000455 -2.539643
25.200000 -2.002932 -2.540235
25.250000 -2.019452 -2.540816
25.300000 -2.049495 -2.541389
25.350000 -2.092189 -2.541953
25.400000 -2.146338 -2.542509
25.450000 -2.210454 -2.543056
25.500000 -2.282799 -2.543594
25.550000 -2.361433 -2.544124
25.600000 -2.444263 -2.544646
25.650000 -2.529105 -2.545160
25.700000 -2.613735 -2.545665
25.750000 -2.695953 -2.546163
25.800000 -2.773638 -2.546654
25.850000 -2.844801 -2.547137
25.900000 -2.907642 -2.547612
25.950000 -2.960588 -2.548080
26.000000 -3.002339 -2.548541
26.050000 -3.031897 -2.548994
26.100000 -3.048590 -2.549441
26.150000 -3.052088 -2.549881
26.200000 -3.042409 -2.550314
26.250000 -3.019915 -2.550740
26.300000 -2.985300 -2.551160
26.350000 -2.939572 -2.551573
26.400000 -2.884021 -2.551980
26.450000 -2.820185 -2.552380
26.500000 -2.749806 -2.552775
26.550000 -2.674786 -2.553163
26.600000 -2.597134 -2.553545
26.650000 -2.518912 -2.553922
26.700000 -2.442182 -2.554292
26.750000 -2.368952 -2.554657
26.800000 -2.301122 -2.555017
26.850000 -2.240438 -2.555370
26.900000 -2.188445 -2.555719
26.950000 -2.146449 -2.556062
27.000000 -2.115485 -2.556399
27.050000 -2.096290 -2.556732
27.100000 -2.089289 -2.557059
27.150000 -2.094584 -2.557381
27.200000 -2.111954 -2.557699
27.250000 -2.140862 -2.558011
27.300000 -2.180475 -2.558319
27.350000 -2.229684 -2.558622
27.400000 -2.287139 -2.558920
27.450000 -2.351282 -2.559214
27.500000 -2.420392 -2.559503
27.550000 -2.492631 -2.559788
27.600000 -2.566091 -2.560068
27.650000 -2.638848 -2.560344
27.700000 -2.709009 -2.560616
27.750000 -2.774764 -2.560883
27.800000 -2.834432 -2.561147
27.850000 -2.886501 -2.561406
27.900000 -2.929672 -2.561661
27.950000 -2.962886 -2.561913
28.000000 -2.985356 -2.562160
28.050000 -2.996578 -2.562404
28.100000 -2.996348 -2.562644
28.150000 -2.984764 -2.562881
28.200000 -2.962218 -2.563113
28.250000 -2.929388 -2.563342
28.300000 -2.887216 -2.563568
28.350000 -2.836881 -2.563790
28.400000 -2.779767 -2.564009
28.450000 -2.717425 -2.564224
28.500000 -2.651531 -2.564436
28.550000 -2.583843 -2.564645
28.600000 -2.516151 -2.564851
28.650000 -2.450233 -2.565053
28.700000 -2.387807 -2.565252
28.750000 -2.330487 -2.565449
28.800000 -2.279741 -2.565642
28.850000 -2.236853 -2.565832
28.900000 -2.202894 -2.566020
28.950000 -2.178691 -2.566204
29.000000 -2.164811 -2.566386
29.050000 -2.161546 -2.566565
29.100000 -2.168907 -2.566741
29.150000 -2.186627 -2.566914
29.200000 -2.214171 -2.567085
29.250000 -2.250750 -2.567253
29.300000 -2.295343 -2.567418
29.350000 -2.346727 -2.567581
29.400000 -2.403513 -2.567742
29.450000 -2.464176 -2.567900
29.500000 -2.527106 -2.568056
29.550000 -2.590641 -2.568209
29.600000 -2.653117 -2.568360
29.650000 -2.712911 -2.568508
29.700000 -2.768481 -2.568654
29.750000 -2.818408 -2.568799
29.800000 -2.861429 -2.568940
29.850000 -2.896473 -2.569080
29.900000 -2.922686 -2.569217
29.950000 -2.939450 -2.569353
30.000000 -2.946400 -2.569486
30.050000 -2.943429 -2.569617
30.100000 -2.930693 -2.569747
30.150000 -2.908600 -2.569874
30.200000 -2.877802 -2.569999
30.250000 -2.839172 -2.570123
30.300000 -2.793783 -2.570244
30.350000 -2.742876 -2.570364
30.400000 -2.687829 -2.570482
30.450000 -2.630115 -2.570598
30.500000 -2.571269 -2.570712
30.550000 -2.512843 -2.570824
30.600000 -2.456366 -2.570935
30.650000 -2.403306 -2.571044
30.700000 -2.355028 -2.571152
30.750000 -2.312765 -2.571257
30.800000 -2.277581 -2.571362
30.850000 -2.250348 -2.571464
30.900000 -2.231722 -2.571565
30.950000 -2.222130 -2.571664
31.000000 -2.221760 -2.571762
31.050000 -2.230555 -2.571859
31.100000 -2.248219 -2.571954
31.150000 -2.274228 -2.572047
31.200000 -2.307840 -2.572139
31.250000 -2.348122 -2.572230
31.300000 -2.393974 -2.572319
31.350000 -2.444154 -2.572407
31.400000 -2.497320 -2.572493
31.450000 -2.552061 -2.572579
31.500000 -2.606933 -2.572663
31.550000 -2.660502 -2.572745
31.600000 -2.711376 -2.572827
31.650000 -2.758246 -2.572907
31.700000 -2.799916 -2.572986
31.750000 -2.835336 -2.573063
31.800000 -2.863628 -2.573140
31.850000 -2.884104 -2.573215
31.900000 -2.896290 -2.573289
31.950000 -2.899928 -2.573362
32.000000 -2.894989 -2.573434
32.050000 -2.881668 -2.573505
32.100000 -2.860377 -2.573575
32.150000 -2.831734 -2.573643
32.200000 -2.796545 -2.573711
32.250000 -2.755783 -2.573778
32.300000 -2.710556 -2.573843
32.350000 -2.662084 -2.573908
32.400000 -2.611662 -2.573971
32.450000 -2.560625 -2.574034
32.500000 -2.510316 -2.574095
32.550000 -2.462049 -2.574156
32.600000 -2.417073 -2.574216
32.650000 -2.376544 -2.574275
32.700000 -2.341490 -2.574333
32.750000 -2.312791 -2.574390
32.800000 -2.291153 -2.574446
32.850000 -2.277091 -2.574501
32.900000 -2.270919 -2.574556
32.950000 -2.272741 -2.574610
33.000000 -2.282453 -2.574662
33.050000 -2.299742 -2.574714
33.100000 -2.324102 -2.574766
33.150000 -2.354844 -2.574816
33.200000 -2.391117 -2.574866
33.250000 -2.431933 -2.574915
33.300000 -2.476189 -2.574963
33.350000 -2.522703 -2.575010
33.400000 -2.570243 -2.575057
33.450000 -2.617556 -2.575103
33.500000 -2.663408 -2.575149
33.550000 -2.706610 -2.575193
33.600000 -2.746051 -2.575237
33.650000 -2.780728 -2.575280
33.700000 -2.809770 -2.575323
33.750000 -2.832459 -2.575365
33.800000 -2.848249 -2.575406
33.850000 -2.856778 -2.575447
33.900000 -2.857879 -2.575487
33.950000 -2.851578 -2.575526
34.000000 -2.838096 -2.575565
34.050000 -2.817841 -2.575604
34.100000 -2.791393 -2.575641
34.150000 -2.759492 -2.575678
34.200000 -2.723014 -2.575715
34.250000 -2.682950 -2.575751
34.300000 -2.640375 -2.575786
34.350000 -2.596424 -2.575821
34.400000 -2.552258 -2.575856
34.450000 -2.509036 -2.575889
34.500000 -2.467884 -2.575923
34.550000 -2.429864 -2.575955
34.600000 -2.395950 -2.575988
34.650000 -2.367001 -2.576020
34.700000 -2.343737 -2.576051
34.750000 -2.326727 -2.576082
34.800000 -2.316371 -2.576112
34.850000 -2.312891 -2.576142
34.900000 -2.316329 -2.576172
34.950000 -2.326544 -2.576201
35.000000 -2.343219 -2.576229
35.050000 -2.365872 -2.576257
35.100000 -2.393864 -2.576285
35.150000 -2.426425 -2.576312
35.200000 -2.462669 -2.576339
35.250000 -2.501620 -2.576366
35.300000 -2.542241 -2.576392
35.350000 -2.583454 -2.576417
35.400000 -2.624179 -2.576443
35.450000 -2.663352 -2.576467
35.500000 -2.699961 -2.576492
35.550000 -2.733066 -2.576516
35.600000 -2.761828 -2.576540
35.650000 -2.785526 -2.576563
35.700000 -2.803577 -2.576586
35.750000 -2.815553 -2.576609
35.800000 -2.821184 -2.576631
35.850000 -2.820370 -2.576653
35.900000 -2.813182 -2.576675
35.950000 -2.799855 -2.576696
36.000000 -2.780784 -2.576717
36.050000 -2.756512 -2.576738
36.100000 -2.727712 -2.576759
36.150000 -2.695173 -2.576779
36.200000 -2.659775 -2.576798
36.250000 -2.622466 -2.576818
36.300000 -2.584238 -2.576837
36.350000 -2.546098 -2.576856
36.400000 -2.509046 -2.576874
36.450000 -2.474044 -2.576893
36.500000 -2.441993 -2.576911
36.550000 -2.413711 -2.576929
36.600000 -2.389911 -2.576946
36.650000 -2.371184 -2.576963
36.700000 -2.357982 -2.576980
36.750000 -2.350612 -2.576997
36.800000 -2.349222 -2.577013
36.850000 -2.353807 -2.577030
36.900000 -2.364201 -2.577046
36.950000 -2.380091 -2.577061
37.000000 -2.401020 -2.577077
37.050000 -2.426403 -2.577092
37.100000 -2.455544 -2.577107
37.150000 -2.487651 -2.577122
37.200000 -2.521864 -2.577136
37.250000 -2.557270 -2.577151
37.300000 -2.592934 -2.577165
37.350000 -2.627922 -2.577179
37.400000 -2.661323 -2.577192
37.450000 -2.692274 -2.577206
37.500000 -2.719983 -2.577219
37.550000 -2.743750 -2.577232
37.600000 -2.762981 -2.577245
37.650000 -2.777207 -2.577258
37.700000 -2.786094 -2.577270
37.750000 -2.789447 -2.577282
37.800000 -2.787221 -2.577295
37.850000 -2.779515 -2.577306
37.900000 -2.766572 -2.577318
37.950000 -2.748771 -2.577330
38.000000 -2.726612 -2.577341
38.050000 -2.700709 -2.577352
38.100000 -2.671768 -2.577363
38.150000 -2.640570 -2.577374
38.200000 -2.607948 -2.577385
38.250000 -2.574766 -2.577396
38.300000 -2.541899 -2.577406
38.350000 -2.510205 -2.577416
38.400000 -2.480504 -2.577426
38.450000 -2.453561 -2.577436
38.500000 -2.430059 -2.577446
38.550000 -2.410591 -2.577456
38.600000 -2.395634 -2.577465
38.650000 -2.385549 -2.577474
38.700000 -2.380563 -2.577484
38.750000 -2.380769 -2.577493
38.800000 -2.386124 -2.577502
38.850000 -2.396449 -2.577510
38.900000 -2.411438 -2.577519
38.950000 -2.430665 -2.577527
39.000000 -2.453594 -2.577536
39.050000 -2.479598 -2.577544
39.100000 -2.507974 -2.577552
39.150000 -2.537962 -2.577560
39.200000 -2.568765 -2.577568
39.250000 -2.599570 -2.577576
39.300000 -2.629572 -2.577584
39.350000 -2.657990 -2.577591
39.400000 -2.684093 -2.577599
39.450000 -2.707216 -2.577606
39.500000 -2.726774 -2.577613
39.550000 -2.742282 -2.577620
39.600000 -2.753364 -2.577627
39.650000 -2.759764 -2.577634
39.700000 -2.761348 -2.577641
39.750000 -2.758110 -2.577647
39.800000 -2.750172 -2.577654
39.850000 -2.737776 -2.577660
39.900000 -2.721280 -2.577667
39.950000 -2.701146 -2.577673
40.000000 -2.677928 -2.577679
40.050000 -2.652257 -2.577685
40.100000 -2.624824 -2.577691
40.150000 -2.596360 -2.577697
40.200000 -2.567617 -2.577703
40.250000 -2.539351 -2.577709
40.300000 -2.512299 -2.577714
40.350000 -2.487159 -2.577720
40.400000 -2.464575 -2.577725
40.450000 -2.445122 -2.577731
40.500000 -2.429283 -2.577736
40.550000 -2.417449 -2.577741
40.600000 -2.409898 -2.577746
40.650000 -2.406797 -2.577751
40.700000 -2.408196 -2.577756
40.750000 -2.414022 -2.577761
40.800000 -2.424093 -2.577766
40.850000 -2.438112 -2.577771
40.900000 -2.455684 -2.577776
40.950000 -2.476322 -2.577780
41.000000 -2.499464 -2.577785
41.050000 -2.524485 -2.577789
41.100000 -2.550716 -2.577794
41.150000 -2.577463 -2.577798
41.200000 -2.604020 -2.577802
41.250000 -2.629694 -2.577807
41.300000 -2.653820 -2.577811
41.350000 -2.675778 -2.577815
41.400000 -2.695009 -2.577819
41.450000 -2.711029 -2.577823
41.500000 -2.723443 -2.577827
41.550000 -2.731953 -2.577831
41.600000 -2.736365 -2.577834
41.650000 -2.736594 -2.577838
41.700000 -2.732666 -2.577842
41.750000 -2.724712 -2.577845
41.800000 -2.712973 -2.577849
41.850000 -2.697783 -2.577852
41.900000 -2.679565 -2.577856
41.950000 -2.658819 -2.577859
42.000000 -2.636107 -2.577863
42.050000 -2.612038 -2.577866
42.100000 -2.587253 -2.577869
42.150000 -2.562405 -2.577872
42.200000 -2.538145 -2.577876
42.250000 -2.515106 -2.577879
42.300000 -2.493880 -2.577882
42.350000 -2.475010 -2.577885
42.400000 -2.458973 -2.577888
42.450000 -2.446168 -2.577891
42.500000 -2.436906 -2.577894
42.550000 -2.431404 -2.577896
42.600000 -2.429778 -2.577899
42.650000 -2.432041 -2.577902
42.700000 -2.438107 -2.577905
42.750000 -2.447787 -2.577907
42.800000 -2.460803 -2.577910
42.850000 -2.476788 -2.577913
42.900000 -2.495302 -2.577915
42.950000 -2.515843 -2.577918
43.000000 -2.537856 -2.577920
43.050000 -2.560756 -2.577922
43.100000 -2.583935 -2.577925
43.150000 -2.606786 -2.577927
43.200000 -2.628712 -2.577930
43.250000 -2.649147 -2.577932
43.300000 -2.667566 -2.577934
43.350000 -2.683502 -2.577936
43.400000 -2.696556 -2.577939
43.450000 -2.706409 -2.577941
43.500000 -2.712825 -2.577943
43.550000 -2.715662 -2.577945
43.600000 -2.714873 -2.577947
43.650000 -2.710505 -2.577949
43.700000 -2.702699 -2.577951
43.750000 -2.691685 -2.577953
43.800000 -2.677775 -2.577955
43.850000 -2.661354 -2.577957
43.900000 -2.642871 -2.577959
43.950000 -2.622825 -2.577960
44.000000 -2.601753 -2.577962
44.050000 -2.580215 -2.577964
44.100000 -2.558776 -2.577966
44.150000 -2.537998 -2.577968
44.200000 -2.518421 -2.577969
44.250000 -2.500547 -2.577971
44.300000 -2.484832 -2.577973
44.350000 -2.471673 -2.577974
44.400000 -2.461393 -2.577976
44.450000 -2.454242 -2.577978
44.500000 -2.450382 -2.577979
44.550000 -2.449892 -2.577981
44.600000 -2.452760 -2.577982
44.650000 -2.458884 -2.577984
44.700000 -2.468081 -2.577985
44.750000 -2.480087 -2.577987
44.800000 -2.494567 -2.577988
44.850000 -2.511125 -2.577989
44.900000 -2.529310 -2.577991
44.950000 -2.548636 -2.577992
45.000000 -2.568587 -2.577993
45.050000 -2.588636 -2.577995
45.100000 -2.608259 -2.577996
45.150000 -2.626945 -2.577997
45.200000 -2.644210 -2.577999
45.250000 -2.659615 -2.578000
45.300000 -2.672769 -2.578001
45.350000 -2.683345 -2.578002
45.400000 -2.691084 -2.578004
45.450000 -2.695806 -2.578005
45.500000 -2.697408 -2.578006
45.550000 -2.695873 -2.578007
45.600000 -2.691264 -2.578008
45.650000 -2.683723 -2.578009
45.700000 -2.673471 -2.578010
45.750000 -2.660795 -2.578011
45.800000 -2.646045 -2.578012
45.850000 -2.629624 -2.578013
45.900000 -2.611973 -2.578014
45.950000 -2.593563 -2.578015
46.000000 -2.574882 -2.578016
46.050000 -2.556422 -2.578017
46.100000 -2.538664 -2.578018
46.150000 -2.522067 -2.578019
46.200000 -2.507058 -2.578020
46.250000 -2.494017 -2.578021
46.300000 -2.483272 -2.578022
46.350000 -2.475088 -2.578023
46.400000 -2.469659 -2.578024
46.450000 -2.467107 -2.578025
46.500000 -2.467477 -2.578026
46.550000 -2.470739 -2.578026
46.600000 -2.476786 -2.578027
46.650000 -2.485439 -2.578028
46.700000 -2.496452 -2.578029
46.750000 -2.509519 -2.578030
46.800000 -2.524283 -2.578030
46.850000 -2.540344 -2.578031
46.900000 -2.557274 -2.578032
46.950000 -2.574622 -2.578033
47.000000 -2.591931 -2.578033
47.050000 -2.608748 -2.578034
47.100000 -2.624637 -2.578035
47.150000 -2.639188 -2.578036
47.200000 -2.652030 -2.578036
47.250000 -2.662840 -2.578037
47.300000 -2.671351 -2.578038
47.350000 -2.677355 -2.578038
47.400000 -2.680714 -2.578039
47.450000 -2.681361 -2.578040
47.500000 -2.679298 -2.578040
47.550000 -2.674599 -2.578041
47.600000 -2.667407 -2.578041
47.650000 -2.657929 -2.578042
47.700000 -2.646429 -2.578043
47.750000 -2.633224 -2.578043
47.800000 -2.618672 -2.578044
47.850000 -2.603163 -2.578044
47.900000 -2.587112 -2.578045
47.950000 -2.570943 -2.578045
48.000000 -2.555078 -2.578046
48.050000 -2.539933 -2.578046
48.100000 -2.525897 -2.578047
48.150000 -2.513330 -2.578048
48.200000 -2.502551 -2.578048
48.250000 -2.493828 -2.578049
48.300000 -2.487374 -2.578049
48.350000 -2.483342 -2.578050
48.400000 -2.481819 -2.578050
48.450000 -2.482827 -2.578050
48.500000 -2.486321 -2.578051
48.550000 -2.492190 -2.578051
48.600000 -2.500263 -2.578052
48.650000 -2.510314 -2.578052
48.700000 -2.522063 -2.578053
48.750000 -2.535192 -2.578053
48.800000 -2.549345 -2.578054
48.850000 -2.564145 -2.578054
48.900000 -2.579200 -2.578054
48.950000 -2.594114 -2.578055
49.000000 -2.608497 -2.578055
49.050000 -2.621977 -2.578056
49.100000 -2.634207 -2.578056
49.150000 -2.644876 -2.578056
49.200000 -2.653717 -2.578057
49.250000 -2.660512 -2.578057
49.300000 -2.665098 -2.578057
49.350000 -2.667372 -2.578058
49.400000 -2.667290 -2.578058
49.450000 -2.664873 -2.578059
49.500000 -2.660201 -2.578059
49.550000 -2.653412 -2.578059
49.600000 -2.644702 -2.578060
49.650000 -2.634311 -2.578060
49.700000 -2.622524 -2.578060
49.750000 -2.609660 -2.578060
49.800000 -2.596064 -2.578061
49.850000 -2.582097 -2.578061
49.900000 -2.568128 -2.578061
49.950000 -2.554523 -2.578062
50.000000 -2.541634 -2.578062
50.050000 -2.529794 -2.578062
50.100000 -2.519306 -2.578063
50.150000 -2.510433 -2.578063
50.200000 -2.503396 -2.578063
50.250000 -2.498367 -2.578063
50.300000 -2.495461 -2.578064
50.350000 -2.494739 -2.578064
50.400000 -2.496204 -2.578064
50.450000 -2.499801 -2.578064
50.500000 -2.505421 -2.578065
50.550000 -2.512901 -2.578065
50.600000 -2.522031 -2.578065
50.650000 -2.532561 -2.578065
50.700000 -2.544205 -2.578066
50.750000 -2.556649 -2.578066
50.800000 -2.569561 -2.578066
50.850000 -2.582601 -2.578066
50.900000 -2.595425 -2.578067
50.950000 -2.607701 -2.578067
51.000000 -2.619109 -2.578067
51.050000 -2.629359 -2.578067
51.100000 -2.638190 -2.578067
51.150000 -2.645382 -2.578068
51.200000 -2.650758 -2.578068
51.250000 -2.654192 -2.578068
51.300000 -2.655607 -2.578068
51.350000 -2.654981 -2.578068
51.400000 -2.652347 -2.578069
51.450000 -2.647787 -2.578069
51.500000 -2.641436 -2.578069
51.550000 -2.633473 -2.578069
51.600000 -2.624119 -2.578069
51.650000 -2.613628 -2.578070
51.700000 -2.602283 -2.578070
51.750000 -2.590389 -2.578070
51.800000 -2.578260 -2.578070
51.850000 -2.566216 -2.578070
51.900000 -2.554571 -2.578070
51.950000 -2.543627 -2.578071
52.000000 -2.533667 -2.578071
52.050000 -2.524942 -2.578071
52.100000 -2.517673 -2.578071
52.150000 -2.512039 -2.578071
52.200000 -2.508175 -2.578071
52.250000 -2.506170 -2.578072
52.300000 -2.506062 -2.578072
52.350000 -2.507840 -2.578072
52.400000 -2.511444 -2.578072
52.450000 -2.516765 -2.578072
52.500000 -2.523652 -2.578072
52.550000 -2.531913 -2.578072
52.600000 -2.541321 -2.578073
52.650000 -2.551622 -2.578073
52.700000 -2.562539 -2.578073
52.750000 -2.573782 -2.578073
52.800000 -2.585054 -2.578073
52.850000 -2.596060 -2.578073
52.900000 -2.606514 -2.578073
52.950000 -2.616146 -2.578073
53.000000 -2.624710 -2.578074
53.050000 -2.631989 -2.578074
53.100000 -2.637803 -2.578074
53.150000 -2.642011 -2.578074
53.200000 -2.644513 -2.578074
53.250000 -2.645258 -2.578074
53.300000 -2.644238 -2.578074
53.350000 -2.641493 -2.578074
53.400000 -2.637109 -2.578074
53.450000 -2.631211 -2.578074
53.500000 -2.623966 -2.578075
53.550000 -2.615573 -2.578075
53.600000 -2.606260 -2.578075
53.650000 -2.596278 -2.578075
53.700000 -2.585894 -2.578075
53.750000 -2.575381 -2.578075
53.800000 -2.565017 -2.578075
53.850000 -2.555072 -2.578075
53.900000 -2.545802 -2.578075
53.950000 -2.537445 -2.578075
54.000000 -2.530215 -2.578076
54.050000 -2.524290 -2.578076
54.100000 -2.519818 -2.578076
54.150000 -2.516904 -2.578076
54.200000 -2.515613 -2.578076
54.250000 -2.515967 -2.578076
54.300000 -2.517944 -2.578076
54.350000 -2.521481 -2.578076
54.400000 -2.526473 -2.578076
54.450000 -2.532780 -2.578076
54.500000 -2.540225 -2.578076
54.550000 -2.548607 -2.578076
54.600000 -2.557698 -2.578076
54.650000 -2.567256 -2.578077
54.700000 -2.577026 -2.578077
54.750000 -2.586751 -2.578077
54.800000 -2.596177 -2.578077
54.850000 -2.605060 -2.578077
54.900000 -2.613170 -2.578077
54.950000 -2.620302 -2.578077
55.000000 -2.626276 -2.578077
55.050000 -2.630943 -2.578077
55.100000 -2.634192 -2.578077
55.150000 -2.635948 -2.578077
55.200000 -2.636176 -2.578077
55.250000 -2.634881 -2.578077
55.300000 -2.632108 -2.578077
55.350000 -2.627942 -2.578077
55.400000 -2.622501 -2.578078
55.450000 -2.615936 -2.578078
55.500000 -2.608430 -2.578078
55.550000 -2.600184 -2.578078
55.600000 -2.591421 -2.578078
55.650000 -2.582373 -2.578078
55.700000 -2.573279 -2.578078
55.750000 -2.564378 -2.578078
55.800000 -2.555902 -2.578078
55.850000 -2.548069 -2.578078
55.900000 -2.541080 -2.578078
55.950000 -2.535111 -2.578078
56.000000 -2.530311 -2.578078
56.050000 -2.526797 -2.578078
56.100000 -2.524652 -2.578078
56.150000 -2.523921 -2.578078
56.200000 -2.524613 -2.578078
56.250000 -2.526701 -2.578078
56.300000 -2.530117 -2.578078
56.350000 -2.534764 -2.578078
56.400000 -2.540511 -2.578078
56.450000 -2.547199 -2.578079
56.500000 -2.554646 -2.578079
56.550000 -2.562651 -2.578079
56.600000 -2.571001 -2.578079
56.650000 -2.579474 -2.578079
56.700000 -2.587848 -2.578079
56.750000 -2.595905 -2.578079
56.800000 -2.603435 -2.578079
56.850000 -2.610246 -2.578079
56.900000 -2.616164 -2.578079
56.950000 -2.621041 -2.578079
57.000000 -2.624758 -2.578079
57.050000 -2.627225 -2.578079
57.100000 -2.628387 -2.578079
57.150000 -2.628223 -2.578079
57.200000 -2.626748 -2.578079
57.250000 -2.624009 -2.578079
57.300000 -2.620089 -2.578079
57.350000 -2.615097 -2.578079
57.400000 -2.609173 -2.578079
57.450000 -2.602479 -2.578079
57.500000 -2.595196 -2.578079
57.550000 -2.587519 -2.578079
57.600000 -2.579651 -2.578079
57.650000 -2.571800 -2.578079
57.700000 -2.564172 -2.578079
57.750000 -2.556964 -2.578079
57.800000 -2.550362 -2.578079
57.850000 -2.544535 -2.578079
57.900000 -2.539629 -2.578080
57.950000 -2.535766 -2.578080
58.000000 -2.533039 -2.578080
58.050000 -2.531512 -2.578080
58.100000 -2.531215 -2.578080
58.150000 -2.532147 -2.578080
58.200000 -2.534275 -2.578080
58.250000 -2.537534 -2.578080
58.300000 -2.541831 -2.578080
58.350000 -2.547044 -2.578080
58.400000 -2.553032 -2.578080
58.450000 -2.559631 -2.578080
58.500000 -2.566664 -2.578080
58.550000 -2.573944 -2.578080
58.600000 -2.581279 -2.578080
58.650000 -2.588475 -2.578080
58.700000 -2.595347 -2.578080
58.750000 -2.601715 -2.578080
58.800000 -2.607417 -2.578080
58.850000 -2.612309 -2.578080
58.900000 -2.616269 -2.578080
58.950000 -2.619200 -2.578080
59.000000 -2.621033 -2.578080
59.050000 -2.621727 -2.578080
59.100000 -2.621274 -2.578080
59.150000 -2.619693 -2.578080
59.200000 -2.617034 -2.578080
59.250000 -2.613375 -2.578080
59.300000 -2.608820 -2.578080
59.350000 -2.603493 -2.578080
59.400000 -2.597540 -2.578080
59.450000 -2.591122 -2.578080
59.500000 -2.584410 -2.578080
59.550000 -2.577582 -2.578080
59.600000 -2.570817 -2.578080
59.650000 -2.564292 -2.578080
59.700000 -2.558177 -2.578080
59.750000 -2.552628 -2.578080
59.800000 -2.547787 -2.578080
59.850000 -2.543774 -2.578080
59.900000 -2.540689 -2.578080
59.950000 -2.538606 -2.578080
60.000000 -2.537572 -2.578080
60.050000 -2.537606 -2.578080
60.100000 -2.538699 -2.578080
60.150000 -2.540815 -2.578080
60.200000 -2.543892 -2.578080
60.250000 -2.547840 -2.578080
60.300000 -2.552551 -2.578080
60.350000 -2.557896 -2.578080
60.400000 -2.563729 -2.578080
60.450000 -2.569895 -2.578080
60.500000 -2.576230 -2.578080
60.550000 -2.582566 -2.578080
60.600000 -2.588738 -2.578080
60.650000 -2.594586 -2.578081
60.700000 -2.599958 -2.578081
60.750000 -2.604717 -2.578081
60.800000 -2.608744 -2.578081
60.850000 -2.611939 -2.578081
60.900000 -2.614223 -2.578081
60.950000 -2.615544 -2.578081
61.000000 -2.615875 -2.578081
61.050000 -2.615214 -2.578081
61.100000 -2.613585 -2.578081
61.150000 -2.611039 -2.578081
61.200000 -2.607649 -2.578081
61.250000 -2.603510 -2.578081
61.300000 -2.598736 -2.578081
61.350000 -2.593456 -2.578081
61.400000 -2.587813 -2.578081
61.450000 -2.581957 -2.578081
61.500000 -2.576042 -2.578081
61.550000 -2.570225 -2.578081
61.600000 -2.564656 -2.578081
61.650000 -2.559480 -2.578081
61.700000 -2.554830 -2.578081
61.750000 -2.550822 -2.578081
61.800000 -2.547558 -2.578081
61.850000 -2.545117 -2.578081
61.900000 -2.543557 -2.578081
61.950000 -2.542912 -2.578081
62.000000 -2.543193 -2.578081
62.050000 -2.544385 -2.578081
62.100000 -2.546451 -2.578081
62.150000 -2.549329 -2.578081
62.200000 -2.552939 -2.578081
62.250000 -2.557180 -2.578081
62.300000 -2.561937 -2.578081
62.350000 -2.567082 -2.578081
62.400000 -2.572476 -2.578081
62.450000 -2.577978 -2.578081
62.500000 -2.583441 -2.578081
62.550000 -2.588724 -2.578081
62.600000 -2.593688 -2.578081
62.650000 -2.598208 -2.578081
62.700000 -2.602167 -2.578081
62.750000 -2.605467 -2.578081
62.800000 -2.608024 -2.578081
62.850000 -2.609780 -2.578081
62.900000 -2.610692 -2.578081
62.950000 -2.610743 -2.578081
63.000000 -2.609940 -2.578081
63.050000 -2.608308 -2.578081
63.100000 -2.605897 -2.578081
63.150000 -2.602775 -2.578081
63.200000 -2.599030 -2.578081
63.250000 -2.594764 -2.578081
63.300000 -2.590093 -2.578081
63.350000 -2.585142 -2.578081
63.400000 -2.580043 -2.578081
63.450000 -2.574930 -2.578081
63.500000 -2.569938 -2.578081
63.550000 -2.565195 -2.578081
63.600000 -2.560825 -2.578081
63.650000 -2.556939 -2.578081
63.700000 -2.553636 -2.578081
63.750000 -2.550996 -2.578081
63.800000 -2.549086 -2.578081
63.850000 -2.547948 -2.578081
63.900000 -2.547608 -2.578081
63.950000 -2.548068 -2.578081
64.000000 -2.549311 -2.578081
64.050000 -2.551297 -2.578081
64.100000 -2.553971 -2.578081
64.150000 -2.557255 -2.578081
64.200000 -2.561061 -2.578081
64.250000 -2.565283 -2.578081
64.300000 -2.569810 -2.578081
64.350000 -2.574520 -2.578081
64.400000 -2.579288 -2.578081
64.450000 -2.583989 -2.578081
64.500000 -2.588501 -2.578081
64.550000 -2.592707 -2.578081
64.600000 -2.596499 -2.578081
64.650000 -2.599780 -2.578081
64.700000 -2.602469 -2.578081
64.750000 -2.604500 -2.578081
64.800000 -2.605824 -2.578081
64.850000 -2.606412 -2.578081
64.900000 -2.606254 -2.578081
64.950000 -2.605359 -2.578081
65.000000 -2.603757 -2.578081
65.050000 -2.601495 -2.578081
65.100000 -2.598636 -2.578081
65.150000 -2.595260 -2.578081
65.200000 -2.591460 -2.578081
65.250000 -2.587337 -2.578081
65.300000 -2.583003 -2.578081
65.350000 -2.578572 -2.578081
65.400000 -2.574160 -2.578081
65.450000 -2.569884 -2.578081
65.500000 -2.565854 -2.578081
65.550000 -2.562174 -2.578081
65.600000 -2.558938 -2.578081
65.650000 -2.556227 -2.578081
65.700000 -2.554108 -2.578081
65.750000 -2.552633 -2.578081
65.800000 -2.551834 -2.578081
65.850000 -2.551729 -2.578081
65.900000 -2.552314 -2.578081
65.950000 -2.553569 -2.578081
66.000000 -2.555457 -2.578081
66.050000 -2.557924 -2.578081
66.100000 -2.560900 -2.578081
66.150000 -2.564303 -2.578081
66.200000 -2.568042 -2.578081
66.250000 -2.572017 -2.578081
66.300000 -2.576120 -2.578081
66.350000 -2.580245 -2.578081
66.400000 -2.584283 -2.578081
66.450000 -2.588128 -2.578081
66.500000 -2.591682 -2.578081
66.550000 -2.594853 -2.578081
66.600000 -2.597562 -2.578081
66.650000 -2.599741 -2.578081
66.700000 -2.601337 -2.578081
66.750000 -2.602312 -2.578081
66.800000 -2.602645 -2.578081
66.850000 -2.602333 -2.578081
66.900000 -2.601388 -2.578081
66.950000 -2.599841 -2.578081
67.000000 -2.597734 -2.578081
67.050000 -2.595129 -2.578081
67.100000 -2.592097 -2.578081
67.150000 -2.588721 -2.578081
67.200000 -2.585090 -2.578081
67.250000 -2.581303 -2.578081
67.300000 -2.577460 -2.578081
67.350000 -2.573662 -2.578081
67.400000 -2.570007 -2.578081
67.450000 -2.566590 -2.578081
67.500000 -2.563500 -2.578081
67.550000 -2.560815 -2.578081
67.600000 -2.558601 -2.578081
67.650000 -2.556913 -2.578081
67.700000 -2.555793 -2.578081
67.750000 -2.555264 -2.578081
67.800000 -2.555336 -2.578081
67.850000 -2.556004 -2.578081
67.900000 -2.557244 -2.578081
67.950000 -2.559021 -2.578081
68.000000 -2.561283 -2.578081
68.050000 -2.563969 -2.578081
68.100000 -2.567004 -2.578081
68.150000 -2.570307 -2.578081
68.200000 -2.573789 -2.578081
68.250000 -2.577357 -2.578081
68.300000 -2.580918 -2.578081
68.350000 -2.584379 -2.578081
68.400000 -2.587649 -2.578081
68.450000 -2.590644 -2.578081
68.500000 -2.593289 -2.578081
68.550000 -2.595515 -2.578081
68.600000 -2.597269 -2.578081
68.650000 -2.598507 -2.578081
68.700000 -2.599202 -2.578081
68.750000 -2.599338 -2.578081
68.800000 -2.598917 -2.578081
68.850000 -2.597953 -2.578081
68.900000 -2.596477 -2.578081
68.950000 -2.594529 -2.578081
69.000000 -2.592166 -2.578081
69.050000 -2.589451 -2.578081
69.100000 -2.586459 -2.578081
69.150000 -2.583269 -2.578081
69.200000 -2.579967 -2.578081
69.250000 -2.576640 -2.578081
69.300000 -2.573376 -2.578081
69.350000 -2.570259 -2.578081
69.400000 -2.567370 -2.578081
69.450000 -2.564782 -2.578081
69.500000 -2.562562 -2.578081
69.550000 -2.560765 -2.578081
69.600000 -2.559434 -2.578081
69.650000 -2.558601 -2.578081
69.700000 -2.558284 -2.578081
69.750000 -2.558488 -2.578081
69.800000 -2.559204 -2.578081
69.850000 -2.560408 -2.578081
69.900000 -2.562067 -2.578081
69.950000 -2.564132 -2.578081
70.000000 -2.566547 -2.578081
70.050000 -2.569246 -2.578081
70.100000 -2.572157 -2.578081
70.150000 -2.575201 -2.578081
70.200000 -2.578298 -2.578081
70.250000 -2.581366 -2.578081
70.300000 -2.584326 -2.578081
70.350000 -2.587100 -2.578081
70.400000 -2.589618 -2.578081
70.450000 -2.591815 -2.578081
70.500000 -2.593637 -2.578081
70.550000 -2.595037 -2.578081
70.600000 -2.595983 -2.578081
70.650000 -2.596454 -2.578081
70.700000 -2.596440 -2.578081
70.750000 -2.595946 -2.578081
70.800000 -2.594987 -2.578081
70.850000 -2.593593 -2.578081
70.900000 -2.591803 -2.578081
70.950000 -2.589668 -2.578081
71.000000 -2.587244 -2.578081
71.050000 -2.584599 -2.578081
71.100000 -2.581803 -2.578081
71.150000 -2.578929 -2.578081
71.200000 -2.576055 -2.578081
71.250000 -2.573256 -2.578081
71.300000 -2.570603 -2.578081
71.350000 -2.568166 -2.578081
71.400000 -2.566006 -2.578081
71.450000 -2.564178 -2.578081
71.500000 -2.562728 -2.578081
71.550000 -2.561691 -2.578081
71.600000 -2.561090 -2.578081
71.650000 -2.560939 -2.578081
71.700000 -2.561237 -2.578081
71.750000 -2.561975 -2.578081
71.800000 -2.563128 -2.578081
71.850000 -2.564665 -2.578081
71.900000 -2.566541 -2.578081
71.950000 -2.568706 -2.578081
72.000000 -2.571100 -2.578081
72.050000 -2.573659 -2.578081
72.100000 -2.576315 -2.578081
72.150000 -2.578998 -2.578081
72.200000 -2.581636 -2.578081
72.250000 -2.584163 -2.578081
72.300000 -2.586511 -2.578081
72.350000 -2.588621 -2.578081
72.400000 -2.590440 -2.578081
72.450000 -2.591921 -2.578081
72.500000 -2.593030 -2.578081
72.550000 -2.593739 -2.578081
72.600000 -2.594032 -2.578081
72.650000 -2.593906 -2.578081
72.700000 -2.593367 -2.578081
72.750000 -2.592431 -2.578081
72.800000 -2.591127 -2.578081
72.850000 -2.589490 -2.578081
72.900000 -2.587567 -2.578081
72.950000 -2.585410 -2.578081
73.000000 -2.583077 -2.578081
73.050000 -2.580631 -2.578081
73.100000 -2.578136 -2.578081
73.150000 -2.575658 -2.578081
73.200000 -2.573261 -2.578081
73.250000 -2.571009 -2.578081
73.300000 -2.568958 -2.578081
73.350000 -2.567162 -2.578081
73.400000 -2.565664 -2.578081
73.450000 -2.564503 -2.578081
73.500000 -2.563706 -2.578081
73.550000 -2.563291 -2.578081
73.600000 -2.563266 -2.578081
73.650000 -2.563629 -2.578081
73.700000 -2.564368 -2.578081
73.750000 -2.565461 -2.578081
73.800000 -2.566876 -2.578081
73.850000 -2.568574 -2.578081
73.900000 -2.570508 -2.578081
73.950000 -2.572626 -2.578081
74.000000 -2.574871 -2.578081
74.050000 -2.577184 -2.578081
74.100000 -2.579503 -2.578081
74.150000 -2.581768 -2.578081
74.200000 -2.583919 -2.578081
74.250000 -2.585902 -2.578081
74.300000 -2.587665 -2.578081
74.350000 -2.589165 -2.578081
74.400000 -2.590363 -2.578081
74.450000 -2.591230 -2.578081
74.500000 -2.591747 -2.578081
74.550000 -2.591903 -2.578081
74.600000 -2.591695 -2.578081
74.650000 -2.591133 -2.578081
74.700000 -2.590233 -2.578081
74.750000 -2.589021 -2.578081
74.800000 -2.587532 -2.578081
74.850000 -2.585807 -2.578081
74.900000 -2.583892 -2.578081
74.950000 -2.581839 -2.578081
75.000000 -2.579703 -2.578081
75.050000 -2.577540 -2.578081
75.100000 -2.575408 -2.578081
75.150000 -2.573361 -2.578081
75.200000 -2.571453 -2.578081
75.250000 -2.569733 -2.578081
75.300000 -2.568243 -2.578081
75.350000 -2.567023 -2.578081
75.400000 -2.566101 -2.578081
75.450000 -2.565499 -2.578081
75.500000 -2.565232 -2.578081
75.550000 -2.565302 -2.578081
75.600000 -2.565707 -2.578081
75.650000 -2.566433 -2.578081
75.700000 -2.567458 -2.578081
75.750000 -2.568754 -2.578081
75.800000 -2.570284 -2.578081
75.850000 -2.572007 -2.578081
75.900000 -2.573877 -2.578081
75.950000 -2.575843 -2.578081
76.000000 -2.577853 -2.578081
76.050000 -2.579854 -2.578081
76.100000 -2.581793 -2.578081
76.150000 -2.583621 -2.578081
76.200000 -2.585291 -2.578081
76.250000 -2.586760 -2.578081
76.300000 -2.587990 -2.578081
76.350000 -2.588952 -2.578081
76.400000 -2.589622 -2.578081
76.450000 -2.589986 -2.578081
76.500000 -2.590034 -2.578081
76.550000 -2.589770 -2.578081
76.600000 -2.589201 -2.578081
76.650000 -2.588346 -2.578081
76.700000 -2.587228 -2.578081
76.750000 -2.585879 -2.578081
76.800000 -2.584336 -2.578081
76.850000 -2.582640 -2.578081
76.900000 -2.580838 -2.578081
76.950000 -2.578976 -2.578081
77.000000 -2.577106 -2.578081
77.050000 -2.575274 -2.578081
77.100000 -2.573530 -2.578081
77.150000 -2.571917 -2.578081
77.200000 -2.570478 -2.578081
77.250000 -2.569249 -2.578081
77.300000 -2.568260 -2.578081
77.350000 -2.567535 -2.578081
77.400000 -2.567092 -2.578081
77.450000 -2.566940 -2.578081
77.500000 -2.567080 -2.578081
77.550000 -2.567508 -2.578081
77.600000 -2.568209 -2.578081
77.650000 -2.569164 -2.578081
77.700000 -2.570345 -2.578081
77.750000 -2.571720 -2.578081
77.800000 -2.573251 -2.578081
77.850000 -2.574897 -2.578081
77.900000 -2.576614 -2.578081
77.950000 -2.578358 -2.578081
78.000000 -2.580081 -2.578081
78.050000 -2.581739 -2.578081
78.100000 -2.583289 -2.578081
78.150000 -2.584691 -2.578081
78.200000 -2.585909 -2.578081
78.250000 -2.586914 -2.578081
78.300000 -2.587680 -2.578081
78.350000 -2.588189 -2.578081
78.400000 -2.588430 -2.578081
78.450000 -2.588398 -2.578081
78.500000 -2.588096 -2.578081
78.550000 -2.587535 -2.578081
78.600000 -2.586729 -2.578081
78.650000 -2.585704 -2.578081
78.700000 -2.584486 -2.578081
78.750000 -2.583110 -2.578081
78.800000 -2.581612 -2.578081
78.850000 -2.580033 -2.578081
78.900000 -2.578415 -2.578081
78.950000 -2.576799 -2.578081
79.000000 -2.575230 -2.578081
79.050000 -2.573746 -2.578081
79.100000 -2.572387 -2.578081
79.150000 -2.571187 -2.578081
79.200000 -2.570177 -2.578081
79.250000 -2.569380 -2.578081
79.300000 -2.568818 -2.578081
79.350000 -2.568502 -2.578081
79.400000 -2.568440 -2.578081
79.450000 -2.568630 -2.578081
79.500000 -2.569066 -2.578081
79.550000 -2.569735 -2.578081
79.600000 -2.570618 -2.578081
79.650000 -2.571689 -2.578081
79.700000 -2.572920 -2.578081
79.750000 -2.574277 -2.578081
79.800000 -2.575724 -2.578081
79.850000 -2.577221 -2.578081
79.900000 -2.578730 -2.578081
79.950000 -2.580211 -2.578081
80.000000 -2.581625 -2.578081
80.050000 -2.582936 -2.578081
80.100000 -2.584110 -2.578081
80.150000 -2.585117 -2.578081
80.200000 -2.585933 -2.578081
80.250000 -2.586538 -2.578081
80.300000 -2.586916 -2.578081
80.350000 -2.587060 -2.578081
80.400000 -2.586969 -2.578081
80.450000 -2.586645 -2.578081
80.500000 -2.586099 -2.578081
80.550000 -2.585348 -2.578081
80.600000 -2.584411 -2.578081
80.650000 -2.583317 -2.578081
80.700000 -2.582093 -2.578081
80.750000 -2.580773 -2.578081
80.800000 -2.579392 -2.578081
80.850000 -2.577987 -2.578081
80.900000 -2.576596 -2.578081
80.950000 -2.575253 -2.578081
81.000000 -2.573994 -2.578081
81.050000 -2.572852 -2.578081
81.100000 -2.571855 -2.578081
81.150000 -2.571028 -2.578081
81.200000 -2.570392 -2.578081
81.250000 -2.569962 -2.578081
81.300000 -2.569748 -2.578081
81.350000 -2.569754 -2.578081
81.400000 -2.569977 -2.578081
81.450000 -2.570412 -2.578081
81.500000 -2.571043 -2.578081
81.550000 -2.571855 -2.578081
81.600000 -2.572823 -2.578081
81.650000 -2.573922 -2.578081
81.700000 -2.575121 -2.578081
81.750000 -2.576389 -2.578081
81.800000 -2.577692 -2.578081
81.850000 -2.578996 -2.578081
81.900000 -2.580266 -2.578081
81.950000 -2.581470 -2.578081
82.000000 -2.582576 -2.578081
82.050000 -2.583556 -2.578081
82.100000 -2.584385 -2.578081
82.150000 -2.585043 -2.578081
82.200000 -2.585514 -2.578081
82.250000 -2.585787 -2.578081
82.300000 -2.585857 -2.578081
82.350000 -2.585722 -2.578081
82.400000 -2.585388 -2.578081
82.450000 -2.584865 -2.578081
82.500000 -2.584169 -2.578081
82.550000 -2.583318 -2.578081
82.600000 -2.582337 -2.578081
82.650000 -2.581251 -2.578081
82.700000 -2.580091 -2.578081
82.750000 -2.578886 -2.578081
82.800000 -2.577669 -2.578081
82.850000 -2.576472 -2.578081
82.900000 -2.575326 -2.578081
82.950000 -2.574261 -2.578081
83.000000 -2.573303 -2.578081
83.050000 -2.572478 -2.578081
83.100000 -2.571806 -2.578081
83.150000 -2.571302 -2.578081
83.200000 -2.570980 -2.578081
83.250000 -2.570846 -2.578081
83.300000 -2.570903 -2.578081
83.350000 -2.571147 -2.578081
83.400000 -2.571571 -2.578081
83.450000 -2.572162 -2.578081
83.500000 -2.572904 -2.578081
83.550000 -2.573776 -2.578081
83.600000 -2.574754 -2.578081
83.650000 -2.575812 -2.578081
83.700000 -2.576921 -2.578081
83.750000 -2.578053 -2.578081
83.800000 -2.579177 -2.578081
83.850000 -2.580264 -2.578081
83.900000 -2.581286 -2.578081
83.950000 -2.582217 -2.578081
84.000000 -2.583032 -2.578081
84.050000 -2.583711 -2.578081
84.100000 -2.584239 -2.578081
84.150000 -2.584601 -2.578081
84.200000 -2.584790 -2.578081
84.250000 -2.584801 -2.578081
84.300000 -2.584637 -2.578081
84.350000 -2.584302 -2.578081
84.400000 -2.583807 -2.578081
84.450000 -2.583166 -2.578081
84.500000 -2.582396 -2.578081
84.550000 -2.581519 -2.578081
84.600000 -2.580559 -2.578081
84.650000 -2.579540 -2.578081
84.700000 -2.578491 -2.578081
84.750000 -2.577440 -2.578081
84.800000 -2.576412 -2.578081
84.850000 -2.575436 -2.578081
84.900000 -2.574537 -2.578081
84.950000 -2.573736 -2.578081
85.000000 -2.573056 -2.578081
85.050000 -2.572512 -2.578081
85.100000 -2.572118 -2.578081
85.150000 -2.571883 -2.578081
85.200000 -2.571812 -2.578081
85.250000 -2.571906 -2.578081
85.300000 -2.572160 -2.578081
85.350000 -2.572568 -2.578081
85.400000 -2.573117 -2.578081
85.450000 -2.573792 -2.578081
85.500000 -2.574575 -2.578081
85.550000 -2.575443 -2.578081
85.600000 -2.576374 -2.578081
85.650000 -2.577343 -2.578081
85.700000 -2.578324 -2.578081
85.750000 -2.579291 -2.578081
85.800000 -2.580219 -2.578081
85.850000 -2.581085 -2.578081
85.900000 -2.581866 -2.578081
85.950000 -2.582541 -2.578081
86.000000 -2.583095 -2.578081
86.050000 -2.583514 -2.578081
86.100000 -2.583787 -2.578081
86.150000 -2.583909 -2.578081
86.200000 -2.583878 -2.578081
86.250000 -2.583695 -2.578081
86.300000 -2.583366 -2.578081
86.350000 -2.582901 -2.578081
86.400000 -2.582314 -2.578081
86.450000 -2.581620 -2.578081
86.500000 -2.580839 -2.578081
86.550000 -2.579991 -2.578081
86.600000 -2.579099 -2.578081
86.650000 -2.578188 -2.578081
86.700000 -2.577280 -2.578081
86.750000 -2.576400 -2.578081
86.800000 -2.575571 -2.578081
86.850000 -2.574813 -2.578081
86.900000 -2.574147 -2.578081
86.950000 -2.573588 -2.578081
87.000000 -2.573152 -2.578081
87.050000 -2.572847 -2.578081
87.100000 -2.572682 -2.578081
87.150000 -2.572660 -2.578081
87.200000 -2.572779 -2.578081
87.250000 -2.573037 -2.578081
87.300000 -2.573424 -2.578081
87.350000 -2.573931 -2.578081
87.400000 -2.574543 -2.578081
87.450000 -2.575242 -2.578081
87.500000 -2.576011 -2.578081
87.550000 -2.576828 -2.578081
87.600000 -2.577673 -2.578081
87.650000 -2.578521 -2.578081
87.700000 -2.579352 -2.578081
87.750000 -2.580143 -2.578081
87.800000 -2.580875 -2.578081
87.850000 -2.581528 -2.578081
87.900000 -2.582086 -2.578081
87.950000 -2.582535 -2.578081
88.000000 -2.582864 -2.578081
88.050000 -2.583065 -2.578081
88.100000 -2.583135 -2.578081
88.150000 -2.583071 -2.578081
88.200000 -2.582878 -2.578081
88.250000 -2.582560 -2.578081
88.300000 -2.582127 -2.578081
88.350000 -2.581592 -2.578081
88.400000 -2.580969 -2.578081
88.450000 -2.580275 -2.578081
88.500000 -2.579528 -2.578081
88.550000 -2.578749 -2.578081
88.600000 -2.577958 -2.578081
88.650000 -2.577177 -2.578081
88.700000 -2.576425 -2.578081
88.750000 -2.575722 -2.578081
88.800000 -2.575085 -2.578081
88.850000 -2.574532 -2.578081
88.900000 -2.574076 -2.578081
88.950000 -2.573728 -2.578081
89.000000 -2.573497 -2.578081
89.050000 -2.573387 -2.578081
89.100000 -2.573402 -2.578081
89.150000 -2.573538 -2.578081
89.200000 -2.573793 -2.578081
89.250000 -2.574157 -2.578081
89.300000 -2.574622 -2.578081
89.350000 -2.575174 -2.578081
89.400000 -2.575798 -2.578081
89.450000 -2.576478 -2.578081
89.500000 -2.577194 -2.578081
89.550000 -2.577928 -2.578081
89.600000 -2.578660 -2.578081
89.650000 -2.579373 -2.578081
89.700000 -2.580046 -2.578081
89.750000 -2.580662 -2.578081
89.800000 -2.581207 -2.578081
89.850000 -2.581665 -2.578081
89.900000 -2.582027 -2.578081
89.950000 -2.582282 -2.578081
90.000000 -2.582426 -2.578081
90.050000 -2.582455 -2.578081
90.100000 -2.582369 -2.578081
90.150000 -2.582171 -2.578081
90.200000 -2.581868 -2.578081
90.250000 -2.581468 -2.578081
90.300000 -2.580982 -2.578081
90.350000 -2.580424 -2.578081
90.400000 -2.579809 -2.578081
90.450000 -2.579153 -2.578081
90.500000 -2.578474 -2.578081
90.550000 -2.577789 -2.578081
90.600000 -2.577117 -2.578081
90.650000 -2.576476 -2.578081
90.700000 -2.575881 -2.578081
90.750000 -2.575348 -2.578081
90.800000 -2.574891 -2.578081
90.850000 -2.574521 -2.578081
90.900000 -2.574246 -2.578081
90.950000 -2.574074 -2.578081
91.000000 -2.574009 -2.578081
91.050000 -2.574050 -2.578081
91.100000 -2.574197 -2.578081
91.150000 -2.574444 -2.578081
91.200000 -2.574784 -2.578081
91.250000 -2.575209 -2.578081
91.300000 -2.575705 -2.578081
91.350000 -2.576260 -2.578081
91.400000 -2.576859 -2.578081
91.450000 -2.577485 -2.578081
91.500000 -2.578122 -2.578081
91.550000 -2.578753 -2.578081
91.600000 -2.579362 -2.578081
91.650000 -2.579933 -2.578081
91.700000 -2.580452 -2.578081
91.750000 -2.580904 -2.578081
91.800000 -2.581279 -2.578081
91.850000 -2.581568 -2.578081
91.900000 -2.581763 -2.578081
91.950000 -2.581861 -2.578081
92.000000 -2.581858 -2.578081
92.050000 -2.581757 -2.578081
92.100000 -2.581561 -2.578081
92.150000 -2.581275 -2.578081
92.200000 -2.580907 -2.578081
92.250000 -2.580468 -2.578081
92.300000 -2.579970 -2.578081
92.350000 -2.579426 -2.578081
92.400000 -2.578850 -2.578081
92.450000 -2.578259 -2.578081
92.500000 -2.577668 -2.578081
92.550000 -2.577092 -2.578081
92.600000 -2.576546 -2.578081
92.650000 -2.576044 -2.578081
92.700000 -2.575600 -2.578081
92.750000 -2.575223 -2.578081
92.800000 -2.574924 -2.578081
92.850000 -2.574710 -2.578081
92.900000 -2.574586 -2.578081
92.950000 -2.574555 -2.578081
93.000000 -2.574615 -2.578081
93.050000 -2.574767 -2.578081
93.100000 -2.575003 -2.578081
93.150000 -2.575319 -2.578081
93.200000 -2.575705 -2.578081
93.250000 -2.576150 -2.578081
93.300000 -2.576642 -2.578081
93.350000 -2.577168 -2.578081
93.400000 -2.577714 -2.578081
93.450000 -2.578266 -2.578081
93.500000 -2.578809 -2.578081
93.550000 -2.579329 -2.578081
93.600000 -2.579813 -2.578081
93.650000 -2.580247 -2.578081
93.700000 -2.580622 -2.578081
93.750000 -2.580927 -2.578081
93.800000 -2.581155 -2.578081
93.850000 -2.581302 -2.578081
93.900000 -2.581363 -2.578081
93.950000 -2.581337 -2.578081
94.000000 -2.581227 -2.578081
94.050000 -2.581035 -2.578081
94.100000 -2.580767 -2.578081
94.150000 -2.580431 -2.578081
94.200000 -2.580035 -2.578081
94.250000 -2.579592 -2.578081
94.300000 -2.579112 -2.578081
94.350000 -2.578609 -2.578081
94.400000 -2.578096 -2.578081
94.450000 -2.577586 -2.578081
94.500000 -2.577093 -2.578081
94.550000 -2.576629 -2.578081
94.600000 -2.576207 -2.578081
94.650000 -2.575837 -2.578081
94.700000 -2.575528 -2.578081
94.750000 -2.575289 -2.578081
94.800000 -2.575125 -2.578081
94.850000 -2.575039 -2.578081
94.900000 -2.575033 -2.578081
94.950000 -2.575107 -2.578081
95.000000 -2.575259 -2.578081
95.050000 -2.575483 -2.578081
95.100000 -2.575774 -2.578081
95.150000 -2.576123 -2.578081
95.200000 -2.576521 -2.578081
95.250000 -2.576956 -2.578081
95.300000 -2.577418 -2.578081
95.350000 -2.577894 -2.578081
95.400000 -2.578371 -2.578081
95.450000 -2.578837 -2.578081
95.500000 -2.579280 -2.578081
95.550000 -2.579688 -2.578081
95.600000 -2.580051 -2.578081
95.650000 -2.580360 -2.578081
95.700000 -2.580607 -2.578081
95.750000 -2.580786 -2.578081
95.800000 -2.580892 -2.578081
95.850000 -2.580925 -2.578081
95.900000 -2.580883 -2.578081
95.950000 -2.580767 -2.578081
96.000000 -2.580582 -2.578081
96.050000 -2.580334 -2.578081
96.100000 -2.580028 -2.578081
96.150000 -2.579673 -2.578081
96.200000 -2.579279 -2.578081
96.250000 -2.578857 -2.578081
96.300000 -2.578418 -2.578081
96.350000 -2.577973 -2.578081
96.400000 -2.577534 -2.578081
96.450000 -2.577113 -2.578081
96.500000 -2.576720 -2.578081
96.550000 -2.576366 -2.578081
96.600000 -2.576059 -2.578081
96.650000 -2.575808 -2.578081
96.700000 -2.575618 -2.578081
96.750000 -2.575493 -2.578081
96.800000 -2.575438 -2.578081
96.850000 -2.575452 -2.578081
96.900000 -2.575535 -2.578081
96.950000 -2.575684 -2.578081
97.000000 -2.575894 -2.578081
97.050000 -2.576161 -2.578081
97.100000 -2.576475 -2.578081
97.150000 -2.576829 -2.578081
97.200000 -2.577214 -2.578081
97.250000 -2.577618 -2.578081
97.300000 -2.578032 -2.578081
97.350000 -2.578443 -2.578081
97.400000 -2.578843 -2.578081
97.450000 -2.579219 -2.578081
97.500000 -2.579563 -2.578081
97.550000 -2.579865 -2.578081
97.600000 -2.580118 -2.578081
97.650000 -2.580317 -2.578081
97.700000 -2.580455 -2.578081
97.750000 -2.580530 -2.578081
97.800000 -2.580540 -2.578081
97.850000 -2.580486 -2.578081
97.900000 -2.580370 -2.578081
97.950000 -2.580194 -2.578081
98.000000 -2.579965 -2.578081
98.050000 -2.579687 -2.578081
98.100000 -2.579370 -2.578081
98.150000 -2.579021 -2.578081
98.200000 -2.578651 -2.578081
98.250000 -2.578268 -2.578081
98.300000 -2.577883 -2.578081
98.350000 -2.577506 -2.578081
98.400000 -2.577147 -2.578081
98.450000 -2.576815 -2.578081
98.500000 -2.576519 -2.578081
98.550000 -2.576266 -2.578081
98.600000 -2.576062 -2.578081
98.650000 -2.575912 -2.578081
98.700000 -2.575821 -2.578081
98.750000 -2.575789 -2.578081
98.800000 -2.575818 -2.578081
98.850000 -2.575905 -2.578081
98.900000 -2.576049 -2.578081
98.950000 -2.576245 -2.578081
99.000000 -2.576488 -2.578081
99.050000 -2.576771 -2.578081
99.100000 -2.577085 -2.578081
99.150000 -2.577424 -2.578081
99.200000 -2.577777 -2.578081
99.250000 -2.578136 -2.578081
99.300000 -2.578490 -2.578081
99.350000 -2.578832 -2.578081
99.400000 -2.579151 -2.578081
99.450000 -2.579439 -2.578081
99.500000 -2.579690 -2.578081
99.550000 -2.579897 -2.578081
99.600000 -2.580055 -2.578081
99.650000 -2.580160 -2.578081
99.700000 -2.580210 -2.578081
99.750000 -2.580204 -2.578081
99.800000 -2.580142 -2.578081
99.850000 -2.580027 -2.578081
99.900000 -2.579862 -2.578081
99.950000 -2.579651 -2.578081
100.000000 -2.579401 -2.578081
100.050000 -2.579118 -2.578081
100.100000 -2.578810 -2.578081
100.150000 -2.578485 -2.578081
100.200000 -2.578152 -2.578081
100.250000 -2.577820 -2.578081
100.300000 -2.577497 -2.578081
100.350000 -2.577191 -2.578081
100.400000 -2.576911 -2.578081
100.450000 -2.576664 -2.578081
100.500000 -2.576456 -2.578081
100.550000 -2.576292 -2.578081
100.600000 -2.576176 -2.578081
100.650000 -2.576111 -2.578081
100.700000 -2.576098 -2.578081
100.750000 -2.576136 -2.578081
100.800000 -2.576226 -2.578081
100.850000 -2.576363 -2.578081
100.900000 -2.576545 -2.578081
100.950000 -2.576765 -2.578081
101.000000 -2.577018 -2.578081
101.050000 -2.577297 -2.578081
101.100000 -2.577594 -2.578081
101.150000 -2.577902 -2.578081
101.200000 -2.578213 -2.578081
101.250000 -2.578518 -2.578081
101.300000 -2.578809 -2.578081
101.350000 -2.579078 -2.578081
101.400000 -2.579320 -2.578081
101.450000 -2.579528 -2.578081
101.500000 -2.579696 -2.578081
101.550000 -2.579820 -2.578081
101.600000 -2.579898 -2.578081
101.650000 -2.579928 -2.578081
101.700000 -2.579910 -2.578081
101.750000 -2.579844 -2.578081
101.800000 -2.579732 -2.578081
101.850000 -2.579577 -2.578081
101.900000 -2.579385 -2.578081
101.950000 -2.579160 -2.578081
102.000000 -2.578908 -2.578081
102.050000 -2.578637 -2.578081
102.100000 -2.578353 -2.578081
102.150000 -2.578064 -2.578081
102.200000 -2.577777 -2.578081
102.250000 -2.577501 -2.578081
102.300000 -2.577242 -2.578081
102.350000 -2.577007 -2.578081
102.400000 -2.576801 -2.578081
102.450000 -2.576631 -2.578081
102.500000 -2.576500 -2.578081
102.550000 -2.576411 -2.578081
102.600000 -2.576367 -2.578081
102.650000 -2.576368 -2.578081
102.700000 -2.576414 -2.578081
102.750000 -2.576503 -2.578081
102.800000 -2.576632 -2.578081
102.850000 -2.576799 -2.578081
102.900000 -2.576998 -2.578081
102.950000 -2.577224 -2.578081
103.000000 -2.577471 -2.578081
103.050000 -2.577732 -2.578081
103.100000 -2.578000 -2.578081
103.150000 -2.578268 -2.578081
103.200000 -2.578529 -2.578081
103.250000 -2.578777 -2.578081
103.300000 -2.579005 -2.578081
103.350000 -2.579206 -2.578081
103.400000 -2.579377 -2.578081
103.450000 -2.579513 -2.578081
103.500000 -2.579610 -2.578081
103.550000 -2.579666 -2.578081
103.600000 -2.579681 -2.578081
103.650000 -2.579653 -2.578081
103.700000 -2.579585 -2.578081
103.750000 -2.579478 -2.578081
103.800000 -2.579335 -2.578081
103.850000 -2.579160 -2.578081
103.900000 -2.578958 -2.578081
103.950000 -2.578735 -2.578081
104.000000 -2.578496 -2.578081
104.050000 -2.578248 -2.578081
104.100000 -2.577998 -2.578081
104.150000 -2.577752 -2.578081
104.200000 -2.577516 -2.578081
104.250000 -2.577297 -2.578081
104.300000 -2.577099 -2.578081
104.350000 -2.576930 -2.578081
104.400000 -2.576791 -2.578081
104.450000 -2.576687 -2.578081
104.500000 -2.576621 -2.578081
104.550000 -2.576593 -2.578081
104.600000 -2.576604 -2.578081
104.650000 -2.576654 -2.578081
104.700000 -2.576741 -2.578081
104.750000 -2.576863 -2.578081
104.800000 -2.577015 -2.578081
104.850000 -2.577194 -2.578081
104.900000 -2.577395 -2.578081
104.950000 -2.577613 -2.578081
105.000000 -2.577841 -2.578081
105.050000 -2.578074 -2.578081
105.100000 -2.578305 -2.578081
105.150000 -2.578529 -2.578081
105.200000 -2.578739 -2.578081
105.250000 -2.578931 -2.578081
105.300000 -2.579099 -2.578081
105.350000 -2.579239 -2.578081
105.400000 -2.579347 -2.578081
105.450000 -2.579422 -2.578081
105.500000 -2.579461 -2.578081
105.550000 -2.579464 -2.578081
105.600000 -2.579430 -2.578081
105.650000 -2.579362 -2.578081
105.700000 -2.579260 -2.578081
105.750000 -2.579128 -2.578081
105.800000 -2.578970 -2.578081
105.850000 -2.578790 -2.578081
105.900000 -2.578592 -2.578081
105.950000 -2.578383 -2.578081
106.000000 -2.578167 -2.578081
106.050000 -2.577951 -2.578081
106.100000 -2.577739 -2.578081
106.150000 -2.577538 -2.578081
106.200000 -2.577353 -2.578081
106.250000 -2.577188 -2.578081
106.300000 -2.577048 -2.578081
106.350000 -2.576936 -2.578081
106.400000 -2.576855 -2.578081
106.450000 -2.576806 -2.578081
106.500000 -2.576792 -2.578081
106.550000 -2.576811 -2.578081
106.600000 -2.576863 -2.578081
106.650000 -2.576946 -2.578081
106.700000 -2.577059 -2.578081
106.750000 -2.577198 -2.578081
106.800000 -2.577359 -2.578081
106.850000 -2.577537 -2.578081
106.900000 -2.577729 -2.578081
106.950000 -2.577928 -2.578081
107.000000 -2.578130 -2.578081
107.050000 -2.578329 -2.578081
107.100000 -2.578520 -2.578081
107.150000 -2.578698 -2.578081
107.200000 -2.578859 -2.578081
107.250000 -2.578998 -2.578081
107.300000 -2.579112 -2.578081
107.350000 -2.579199 -2.578081
107.400000 -2.579255 -2.578081
107.450000 -2.579280 -2.578081
107.500000 -2.579274 -2.578081
107.550000 -2.579236 -2.578081
107.600000 -2.579169 -2.578081
107.650000 -2.579074 -2.578081
107.700000 -2.578953 -2.578081
107.750000 -2.578810 -2.578081
107.800000 -2.578650 -2.578081
107.850000 -2.578475 -2.578081
107.900000 -2.578292 -2.578081
107.950000 -2.578104 -2.578081
108.000000 -2.577918 -2.578081
108.050000 -2.577737 -2.578081
108.100000 -2.577566 -2.578081
108.150000 -2.577410 -2.578081
108.200000 -2.577273 -2.578081
108.250000 -2.577158 -2.578081
108.300000 -2.577068 -2.578081
108.350000 -2.577005 -2.578081
108.400000 -2.576971 -2.578081
108.450000 -2.576966 -2.578081
108.500000 -2.576990 -2.578081
108.550000 -2.577043 -2.578081
108.600000 -2.577123 -2.578081
108.650000 -2.577227 -2.578081
108.700000 -2.577352 -2.578081
108.750000 -2.577496 -2.578081
108.800000 -2.577654 -2.578081
108.850000 -2.577822 -2.578081
108.900000 -2.577996 -2.578081
108.950000 -2.578171 -2.578081
109.000000 -2.578342 -2.578081
109.050000 -2.578505 -2.578081
109.100000 -2.578655 -2.578081
109.150000 -2.578790 -2.578081
109.200000 -2.578904 -2.578081
109.250000 -2.578997 -2.578081
109.300000 -2.579065 -2.578081
109.350000 -2.579106 -2.578081
109.400000 -2.579121 -2.578081
109.450000 -2.579108 -2.578081
109.500000 -2.579068 -2.578081
109.550000 -2.579003 -2.578081
109.600000 -2.578914 -2.578081
109.650000 -2.578804 -2.578081
109.700000 -2.578676 -2.578081
109.750000 -2.578533 -2.578081
109.800000 -2.578380 -2.578081
109.850000 -2.578220 -2.578081
109.900000 -2.578057 -2.578081
109.950000 -2.577896 -2.578081
110.000000 -2.577741 -2.578081
110.050000 -2.577597 -2.578081
110.100000 -2.577466 -2.578081
110.150000 -2.577352 -2.578081
110.200000 -2.577258 -2.578081
110.250000 -2.577186 -2.578081
110.300000 -2.577138 -2.578081
110.350000 -2.577116 -2.578081
110.400000 -2.577118 -2.578081
110.450000 -2.577146 -2.578081
110.500000 -2.577199 -2.578081
110.550000 -2.577274 -2.578081
110.600000 -2.577369 -2.578081
110.650000 -2.577482 -2.578081
110.700000 -2.577611 -2.578081
110.750000 -2.577750 -2.578081
110.800000 -2.577898 -2.578081
110.850000 -2.578049 -2.578081
110.900000 -2.578200 -2.578081
110.950000 -2.578346 -2.578081
111.000000 -2.578485 -2.578081
111.050000 -2.578611 -2.578081
111.100000 -2.578724 -2.578081
111.150000 -2.578818 -2.578081
111.200000 -2.578893 -2.578081
111.250000 -2.578945 -2.578081
111.300000 -2.578975 -2.578081
111.350000 -2.578981 -2.578081
111.400000 -2.578963 -2.578081
111.450000 -2.578923 -2.578081
111.500000 -2.578861 -2.578081
111.550000 -2.578779 -2.578081
111.600000 -2.578679 -2.578081
111.650000 -2.578564 -2.578081
111.700000 -2.578437 -2.578081
111.750000 -2.578303 -2.578081
111.800000 -2.578163 -2.578081
111.850000 -2.578022 -2.578081
111.900000 -2.577884 -2.578081
111.950000 -2.577752 -2.578081
112.000000 -2.577629 -2.578081
112.050000 -2.577520 -2.578081
112.100000 -2.577426 -2.578081
112.150000 -2.577349 -2.578081
112.200000 -2.577293 -2.578081
112.250000 -2.577257 -2.578081
112.300000 -2.577243 -2.578081
112.350000 -2.577252 -2.578081
112.400000 -2.577282 -2.578081
112.450000 -2.577333 -2.578081
112.500000 -2.577403 -2.578081
112.550000 -2.577490 -2.578081
112.600000 -2.577592 -2.578081
112.650000 -2.577706 -2.578081
112.700000 -2.577829 -2.578081
112.750000 -2.577958 -2.578081
112.800000 -2.578089 -2.578081
112.850000 -2.578219 -2.578081
112.900000 -2.578344 -2.578081
112.950000 -2.578462 -2.578081
113.000000 -2.578568 -2.578081
113.050000 -2.578661 -2.578081
113.100000 -2.578739 -2.578081
113.150000 -2.578798 -2.578081
113.200000 -2.578839 -2.578081
113.250000 -2.578859 -2.578081
113.300000 -2.578858 -2.578081
113.350000 -2.578838 -2.578081
113.400000 -2.578797 -2.578081
113.450000 -2.578739 -2.578081
113.500000 -2.578663 -2.578081
113.550000 -2.578573 -2.578081
113.600000 -2.578470 -2.578081
113.650000 -2.578359 -2.578081
113.700000 -2.578240 -2.578081
113.750000 -2.578119 -2.578081
113.800000 -2.577997 -2.578081
113.850000 -2.577878 -2.578081
113.900000 -2.577766 -2.578081
113.950000 -2.577663 -2.578081
114.000000 -2.577571 -2.578081
114.050000 -2.577494 -2.578081
114.100000 -2.577432 -2.578081
114.150000 -2.577388 -2.578081
114.200000 -2.577362 -2.578081
114.250000 -2.577356 -2.578081
114.300000 -2.577368 -2.578081
114.350000 -2.577399 -2.578081
114.400000 -2.577448 -2.578081
114.450000 -2.577513 -2.578081
114.500000 -2.577592 -2.578081
114.550000 -2.577683 -2.578081
114.600000 -2.577784 -2.578081
114.650000 -2.577893 -2.578081
114.700000 -2.578005 -2.578081
114.750000 -2.578119 -2.578081
114.800000 -2.578230 -2.578081
114.850000 -2.578337 -2.578081
114.900000 -2.578437 -2.578081
114.950000 -2.578526 -2.578081
115.000000 -2.578603 -2.578081
115.050000 -2.578666 -2.578081
115.100000 -2.578713 -2.578081
115.150000 -2.578744 -2.578081
115.200000 -2.578756 -2.578081
115.250000 -2.578751 -2.578081
115.300000 -2.578729 -2.578081
115.350000 -2.578689 -2.578081
115.400000 -2.578634 -2.578081
115.450000 -2.578565 -2.578081
115.500000 -2.578484 -2.578081
115.550000 -2.578393 -2.578081
115.600000 -2.578294 -2.578081
115.650000 -2.578190 -2.578081
115.700000 -2.578085 -2.578081
115.750000 -2.577980 -2.578081
115.800000 -2.577878 -2.578081
115.850000 -2.577783 -2.578081
115.900000 -2.577696 -2.578081
115.950000 -2.577620 -2.578081
116.000000 -2.577556 -2.578081
116.050000 -2.577507 -2.578081
116.100000 -2.577473 -2.578081
116.150000 -2.577455 -2.578081
116.200000 -2.577454 -2.578081
116.250000 -2.577469 -2.578081
116.300000 -2.577500 -2.578081
116.350000 -2.577546 -2.578081
116.400000 -2.577606 -2.578081
116.450000 -2.577678 -2.578081
116.500000 -2.577760 -2.578081
116.550000 -2.577849 -2.578081
116.600000 -2.577944 -2.578081
116.650000 -2.578042 -2.578081
116.700000 -2.578140 -2.578081
116.750000 -2.578236 -2.578081
116.800000 -2.578327 -2.578081
116.850000 -2.578411 -2.578081
116.900000 -2.578486 -2.578081
116.950000 -2.578550 -2.578081
117.000000 -2.578601 -2.578081
117.050000 -2.578637 -2.578081
117.100000 -2.578659 -2.578081
117.150000 -2.578666 -2.578081
117.200000 -2.578658 -2.578081
117.250000 -2.578634 -2.578081
117.300000 -2.578596 -2.578081
117.350000 -2.578545 -2.578081
117.400000 -2.578482 -2.578081
117.450000 -2.578409 -2.578081
117.500000 -2.578328 -2.578081
117.550000 -2.578241 -2.578081
117.600000 -2.578151 -2.578081
117.650000 -2.578060 -2.578081
117.700000 -2.577969 -2.578081
117.750000 -2.577883 -2.578081
117.800000 -2.577802 -2.578081
117.850000 -2.577729 -2.578081
117.900000 -2.577666 -2.578081
117.950000 -2.577614 -2.578081
118.000000 -2.577575 -2.578081
118.050000 -2.577549 -2.578081
118.100000 -2.577537 -2.578081
118.150000 -2.577540 -2.578081
118.200000 -2.577557 -2.578081
118.250000 -2.577588 -2.578081
118.300000 -2.577631 -2.578081
118.350000 -2.577686 -2.578081
118.400000 -2.577750 -2.578081
118.450000 -2.577823 -2.578081
118.500000 -2.577902 -2.578081
118.550000 -2.577985 -2.578081
118.600000 -2.578071 -2.578081
118.650000 -2.578155 -2.578081
118.700000 -2.578237 -2.578081
118.750000 -2.578315 -2.578081
118.800000 -2.578386 -2.578081
118.850000 -2.578448 -2.578081
118.900000 -2.578500 -2.578081
118.950000 -2.578541 -2.578081
119.000000 -2.578569 -2.578081
119.050000 -2.578585 -2.578081
119.100000 -2.578587 -2.578081
119.150000 -2.578576 -2.578081
119.200000 -2.578552 -2.578081
119.250000 -2.578516 -2.578081
119.300000 -2.578469 -2.578081
119.350000 -2.578412 -2.578081
119.400000 -2.578347 -2.578081
119.450000 -2.578275 -2.578081
119.500000 -2.578199 -2.578081
119.550000 -2.578120 -2.578081
119.600000 -2.578041 -2.578081
119.650000 -2.577963 -2.578081
119.700000 -2.577890 -2.578081
119.750000 -2.577821 -2.578081
119.800000 -2.577760 -2.578081
119.850000 -2.577708 -2.578081
119.900000 -2.577666 -2.578081
119.950000 -2.577635 -2.578081
120.000000 -2.577616 -2.578081
120.050000 -2.577610 -2.578081
120.100000 -2.577616 -2.578081
120.150000 -2.577633 -2.578081
120.200000 -2.577663 -2.578081
120.250000 -2.577703 -2.578081
120.300000 -2.577753 -2.578081
120.350000 -2.577811 -2.578081
120.400000 -2.577876 -2.578081
120.450000 -2.577946 -2.578081
120.500000 -2.578018 -2.578081
120.550000 -2.578092 -2.578081
120.600000 -2.578165 -2.578081
120.650000 -2.578235 -2.578081
120.700000 -2.578301 -2.578081
120.750000 -2.578360 -2.578081
120.800000 -2.578412 -2.578081
120.850000 -2.578455 -2.578081
120.900000 -2.578487 -2.578081
120.950000 -2.578509 -2.578081
121.000000 -2.578519 -2.578081
121.050000 -2.578518 -2.578081
121.100000 -2.578505 -2.578081
121.150000 -2.578482 -2.578081
121.200000 -2.578448 -2.578081
121.250000 -2.578404 -2.578081
121.300000 -2.578353 -2.578081
121.350000 -2.578295 -2.578081
121.400000 -2.578232 -2.578081
121.450000 -2.578165 -2.578081
121.500000 -2.578096 -2.578081
121.550000 -2.578028 -2.578081
121.600000 -2.577961 -2.578081
121.650000 -2.577899 -2.578081
121.700000 -2.577841 -2.578081
121.750000 -2.577790 -2.578081
121.800000 -2.577747 -2.578081
121.850000 -2.577713 -2.578081
121.900000 -2.577689 -2.578081
121.950000 -2.577676 -2.578081
122.000000 -2.577673 -2.578081
122.050000 -2.577681 -2.578081
122.100000 -2.577699 -2.578081
122.150000 -2.577728 -2.578081
122.200000 -2.577765 -2.578081
122.250000 -2.577810 -2.578081
122.300000 -2.577862 -2.578081
122.350000 -2.577920 -2.578081
122.400000 -2.577981 -2.578081
122.450000 -2.578044 -2.578081
122.500000 -2.578108 -2.578081
122.550000 -2.578171 -2.578081
122.600000 -2.578231 -2.578081
122.650000 -2.578286 -2.578081
122.700000 -2.578336 -2.578081
122.750000 -2.578379 -2.578081
122.800000 -2.578413 -2.578081
122.850000 -2.578439 -2.578081
122.900000 -2.578455 -2.578081
122.950000 -2.578461 -2.578081
123.000000 -2.578458 -2.578081
123.050000 -2.578444 -2.578081
123.100000 -2.578421 -2.578081
123.150000 -2.578389 -2.578081
123.200000 -2.578350 -2.578081
123.250000 -2.578303 -2.578081
123.300000 -2.578252 -2.578081
123.350000 -2.578196 -2.578081
123.400000 -2.578137 -2.578081
123.450000 -2.578078 -2.578081
123.500000 -2.578019 -2.578081
123.550000 -2.577962 -2.578081
123.600000 -2.577909 -2.578081
123.650000 -2.577861 -2.578081
123.700000 -2.577818 -2.578081
123.750000 -2.577783 -2.578081
123.800000 -2.577756 -2.578081
123.850000 -2.577738 -2.578081
123.900000 -2.577729 -2.578081
123.950000 -2.577729 -2.578081
124.000000 -2.577738 -2.578081
124.050000 -2.577756 -2.578081
124.100000 -2.577783 -2.578081
124.150000 -2.577817 -2.578081
124.200000 -2.577858 -2.578081
124.250000 -2.577905 -2.578081
124.300000 -2.577955 -2.578081
124.350000 -2.578009 -2.578081
124.400000 -2.578064 -2.578081
124.450000 -2.578119 -2.578081
124.500000 -2.578173 -2.578081
124.550000 -2.578224 -2.578081
124.600000 -2.578271 -2.578081
124.650000 -2.578312 -2.578081
124.700000 -2.578348 -2.578081
124.750000 -2.578376 -2.578081
124.800000 -2.578396 -2.578081
124.850000 -2.578407 -2.578081
124.900000 -2.578410 -2.578081
124.950000 -2.578405 -2.578081
125.000000 -2.578391 -2.578081
125.050000 -2.578369 -2.578081
125.100000 -2.578339 -2.578081
125.150000 -2.578303 -2.578081
125.200000 -2.578262 -2.578081
125.250000 -2.578216 -2.578081
125.300000 -2.578167 -2.578081
125.350000 -2.578116 -2.578081
125.400000 -2.578064 -2.578081
125.450000 -2.578014 -2.578081
125.500000 -2.577965 -2.578081
125.550000 -2.577920 -2.578081
125.600000 -2.577880 -2.578081
125.650000 -2.577845 -2.578081
125.700000 -2.577816 -2.578081
125.750000 -2.577795 -2.578081
125.800000 -2.577781 -2.578081
125.850000 -2.577775 -2.578081
125.900000 -2.577777 -2.578081
125.950000 -2.577788 -2.578081
126.000000 -2.577805 -2.578081
126.050000 -2.577830 -2.578081
126.100000 -2.577862 -2.578081
126.150000 -2.577899 -2.578081
126.200000 -2.577940 -2.578081
126.250000 -2.577985 -2.578081
126.300000 -2.578032 -2.578081
126.350000 -2.578079 -2.578081
126.400000 -2.578127 -2.578081
126.450000 -2.578173 -2.578081
126.500000 -2.578216 -2.578081
126.550000 -2.578256 -2.578081
126.600000 -2.578290 -2.578081
126.650000 -2.578319 -2.578081
126.700000 -2.578342 -2.578081
126.750000 -2.578357 -2.578081
126.800000 -2.578365 -2.578081
126.850000 -2.578366 -2.578081
126.900000 -2.578359 -2.578081
126.950000 -2.578345 -2.578081
127.000000 -2.578324 -2.578081
127.050000 -2.578297 -2.578081
127.100000 -2.578264 -2.578081
127.150000 -2.578227 -2.578081
127.200000 -2.578187 -2.578081
127.250000 -2.578144 -2.578081
127.300000 -2.578099 -2.578081
127.350000 -2.578055 -2.578081
127.400000 -2.578011 -2.578081
127.450000 -2.577970 -2.578081
127.500000 -2.577932 -2.578081
127.550000 -2.577898 -2.578081
127.600000 -2.577869 -2.578081
127.650000 -2.577846 -2.578081
127.700000 -2.577829 -2.578081
127.750000 -2.577819 -2.578081
127.800000 -2.577816 -2.578081
127.850000 -2.577820 -2.578081
127.900000 -2.577831 -2.578081
127.950000 -2.577848 -2.578081
128.000000 -2.577871 -2.578081
128.050000 -2.577899 -2.578081
128.100000 -2.577932 -2.578081
128.150000 -2.577969 -2.578081
128.200000 -2.578009 -2.578081
128.250000 -2.578049 -2.578081
128.300000 -2.578091 -2.578081
128.350000 -2.578132 -2.578081
128.400000 -2.578171 -2.578081
128.450000 -2.578208 -2.578081
128.500000 -2.578241 -2.578081
128.550000 -2.578270 -2.578081
128.600000 -2.578293 -2.578081
128.650000 -2.578311 -2.578081
128.700000 -2.578323 -2.578081
128.750000 -2.578328 -2.578081
128.800000 -2.578327 -2.578081
128.850000 -2.578319 -2.578081
128.900000 -2.578305 -2.578081
128.950000 -2.578286 -2.578081
129.000000 -2.578261 -2.578081
129.050000 -2.578231 -2.578081
129.100000 -2.578198 -2.578081
129.150000 -2.578163 -2.578081
129.200000 -2.578125 -2.578081
129.250000 -2.578086 -2.578081
129.300000 -2.578048 -2.578081
129.350000 -2.578011 -2.578081
129.400000 -2.577975 -2.578081
129.450000 -2.577943 -2.578081
129.500000 -2.577915 -2.578081
129.550000 -2.577891 -2.578081
129.600000 -2.577873 -2.578081
129.650000 -2.577860 -2.578081
129.700000 -2.577853 -2.578081
129.750000 -2.577852 -2.578081
129.800000 -2.577857 -2.578081
129.850000 -2.577868 -2.578081
129.900000 -2.577884 -2.578081
129.950000 -2.577905 -2.578081
130.000000 -2.577931 -2.578081
130.050000 -2.577961 -2.578081
130.100000 -2.577993 -2.578081
130.150000 -2.578028 -2.578081
130.200000 -2.578064 -2.578081
130.250000 -2.578099 -2.578081
130.300000 -2.578135 -2.578081
130.350000 -2.578168 -2.578081
130.400000 -2.578199 -2.578081
130.450000 -2.578227 -2.578081
130.500000 -2.578250 -2.578081
130.550000 -2.578270 -2.578081
130.600000 -2.578284 -2.578081
130.650000 -2.578292 -2.578081
130.700000 -2.578295 -2.578081
130.750000 -2.578293 -2.578081
130.800000 -2.578284 -2.578081
130.850000 -2.578271 -2.578081
130.900000 -2.578253 -2.578081
130.950000 -2.578230 -2.578081
131.000000 -2.578204 -2.578081
131.050000 -2.578174 -2.578081
131.100000 -2.578143 -2.578081
131.150000 -2.578110 -2.578081
131.200000 -2.578076 -2.578081
131.250000 -2.578043 -2.578081
131.300000 -2.578012 -2.578081
131.350000 -2.577982 -2.578081
131.400000 -2.577955 -2.578081
131.450000 -2.577931 -2.578081
131.500000 -2.577912 -2.578081
131.550000 -2.577897 -2.578081
131.600000 -2.577887 -2.578081
131.650000 -2.577883 -2.578081
131.700000 -2.577883 -2.578081
131.750000 -2.577889 -2.578081
131.800000 -2.577900 -2.578081
131.850000 -2.577915 -2.578081
131.900000 -2.577935 -2.578081
131.950000 -2.577958 -2.578081
132.000000 -2.577984 -2.578081
132.050000 -2.578013 -2.578081
132.100000 -2.578043 -2.578081
132.150000 -2.578074 -2.578081
132.200000 -2.578105 -2.578081
132.250000 -2.578136 -2.578081
132.300000 -2.578164 -2.578081
132.350000 -2.578190 -2.578081
132.400000 -2.578213 -2.578081
132.450000 -2.578233 -2.578081
132.500000 -2.578248 -2.578081
132.550000 -2.578259 -2.578081
132.600000 -2.578265 -2.578081
132.650000 -2.578266 -2.578081
132.700000 -2.578263 -2.578081
132.750000 -2.578254 -2.578081
132.800000 -2.578242 -2.578081
132.850000 -2.578225 -2.578081
132.900000 -2.578204 -2.578081
132.950000 -2.578181 -2.578081
133.000000 -2.578155 -2.578081
133.050000 -2.578127 -2.578081
133.100000 -2.578098 -2.578081
133.150000 -2.578069 -2.578081
133.200000 -2.578041 -2.578081
133.250000 -2.578014 -2.578081
133.300000 -2.577988 -2.578081
133.350000 -2.577966 -2.578081
133.400000 -2.577946 -2.578081
133.450000 -2.577931 -2.578081
133.500000 -2.577919 -2.578081
133.550000 -2.577912 -2.578081
133.600000 -2.577909 -2.578081
133.650000 -2.577911 -2.578081
133.700000 -2.577917 -2.578081
133.750000 -2.577927 -2.578081
133.800000 -2.577942 -2.578081
133.850000 -2.577959 -2.578081
133.900000 -2.577980 -2.578081
133.950000 -2.578004 -2.578081
134.000000 -2.578029 -2.578081
134.050000 -2.578056 -2.578081
134.100000 -2.578083 -2.578081
134.150000 -2.578109 -2.578081
134.200000 -2.578135 -2.578081
134.250000 -2.578159 -2.578081
134.300000 -2.578181 -2.578081
134.350000 -2.578201 -2.578081
134.400000 -2.578216 -2.578081
134.450000 -2.578229 -2.578081
134.500000 -2.578237 -2.578081
134.550000 -2.578241 -2.578081
134.600000 -2.578241 -2.578081
134.650000 -2.578237 -2.578081
134.700000 -2.578229 -2.578081
134.750000 -2.578217 -2.578081
134.800000 -2.578201 -2.578081
134.850000 -2.578183 -2.578081
134.900000 -2.578161 -2.578081
134.950000 -2.578138 -2.578081
135.000000 -2.578114 -2.578081
135.050000 -2.578089 -2.578081
135.100000 -2.578064 -2.578081
135.150000 -2.578040 -2.578081
135.200000 -2.578017 -2.578081
135.250000 -2.577995 -2.578081
135.300000 -2.577976 -2.578081
135.350000 -2.577960 -2.578081
135.400000 -2.577948 -2.578081
135.450000 -2.577939 -2.578081
135.500000 -2.577933 -2.578081
135.550000 -2.577932 -2.578081
135.600000 -2.577935 -2.578081
135.650000 -2.577941 -2.578081
135.700000 -2.577951 -2.578081
135.750000 -2.577964 -2.578081
135.800000 -2.577980 -2.578081
135.850000 -2.577999 -2.578081
135.900000 -2.578020 -2.578081
135.950000 -2.578042 -2.578081
136.000000 -2.578065 -2.578081
136.050000 -2.578089 -2.578081
136.100000 -2.578112 -2.578081
136.150000 -2.578134 -2.578081
136.200000 -2.578154 -2.578081
136.250000 -2.578173 -2.578081
136.300000 -2.578189 -2.578081
136.350000 -2.578202 -2.578081
136.400000 -2.578211 -2.578081
136.450000 -2.578218 -2.578081
136.500000 -2.578220 -2.578081
136.550000 -2.578219 -2.578081
136.600000 -2.578214 -2.578081
136.650000 -2.578206 -2.578081
136.700000 -2.578195 -2.578081
136.750000 -2.578181 -2.578081
136.800000 -2.578164 -2.578081
136.850000 -2.578145 -2.578081
136.900000 -2.578125 -2.578081
136.950000 -2.578104 -2.578081
137.000000 -2.578082 -2.578081
137.050000 -2.578061 -2.578081
137.100000 -2.578040 -2.578081
137.150000 -2.578020 -2.578081
137.200000 -2.578002 -2.578081
137.250000 -2.577986 -2.578081
137.300000 -2.577973 -2.578081
137.350000 -2.577963 -2.578081
137.400000 -2.577956 -2.578081
137.450000 -2.577953 -2.578081
137.500000 -2.577952 -2.578081
137.550000 -2.577955 -2.578081
137.600000 -2.577962 -2.578081
137.650000 -2.577971 -2.578081
137.700000 -2.577983 -2.578081
137.750000 -2.577998 -2.578081
137.800000 -2.578015 -2.578081
137.850000 -2.578033 -2.578081
137.900000 -2.578053 -2.578081
137.950000 -2.578073 -2.578081
138.000000 -2.578093 -2.578081
138.050000 -2.578113 -2.578081
138.100000 -2.578132 -2.578081
138.150000 -2.578149 -2.578081
138.200000 -2.578164 -2.578081
138.250000 -2.578178 -2.578081
138.300000 -2.578188 -2.578081
138.350000 -2.578196 -2.578081
138.400000 -2.578200 -2.578081
138.450000 -2.578202 -2.578081
138.500000 -2.578200 -2.578081
138.550000 -2.578195 -2.578081
138.600000 -2.578187 -2.578081
138.650000 -2.578177 -2.578081
138.700000 -2.578164 -2.578081
138.750000 -2.578149 -2.578081
138.800000 -2.578132 -2.578081
138.850000 -2.578114 -2.578081
138.900000 -2.578096 -2.578081
138.950000 -2.578077 -2.578081
139.000000 -2.578058 -2.578081
139.050000 -2.578040 -2.578081
139.100000 -2.578024 -2.578081
139.150000 -2.578009 -2.578081
139.200000 -2.577996 -2.578081
139.250000 -2.577985 -2.578081
139.300000 -2.577977 -2.578081
139.350000 -2.577972 -2.578081
139.400000 -2.577969 -2.578081
139.450000 -2.577970 -2.578081
139.500000 -2.577973 -2.578081
139.550000 -2.577980 -2.578081
139.600000 -2.577989 -2.578081
139.650000 -2.578000 -2.578081
139.700000 -2.578013 -2.578081
139.750000 -2.578028 -2.578081
139.800000 -2.578044 -2.578081
139.850000 -2.578061 -2.578081
139.900000 -2.578079 -2.578081
139.950000 -2.578096 -2.578081
140.000000 -2.578113 -2.578081
140.050000 -2.578129 -2.578081
140.100000 -2.578144 -2.578081
140.150000 -2.578157 -2.578081
140.200000 -2.578167 -2.578081
140.250000 -2.578176 -2.578081
140.300000 -2.578182 -2.578081
140.350000 -2.578185 -2.578081
140.400000 -2.578185 -2.578081
140.450000 -2.578183 -2.578081
140.500000 -2.578178 -2.578081
140.550000 -2.578171 -2.578081
140.600000 -2.578161 -2.578081
140.650000 -2.578149 -2.578081
140.700000 -2.578136 -2.578081
140.750000 -2.578121 -2.578081
140.800000 -2.578106 -2.578081
140.850000 -2.578089 -2.578081
140.900000 -2.578073 -2.578081
140.950000 -2.578057 -2.578081
141.000000 -2.578042 -2.578081
141.050000 -2.578028 -2.578081
141.100000 -2.578015 -2.578081
141.150000 -2.578005 -2.578081
141.200000 -2.577996 -2.578081
141.250000 -2.577990 -2.578081
141.300000 -2.577986 -2.578081
141.350000 -2.577984 -2.578081
141.400000 -2.577985 -2.578081
141.450000 -2.577989 -2.578081
141.500000 -2.577995 -2.578081
141.550000 -2.578003 -2.578081
141.600000 -2.578014 -2.578081
141.650000 -2.578026 -2.578081
141.700000 -2.578039 -2.578081
141.750000 -2.578053 -2.578081
141.800000 -2.578068 -2.578081
141.850000 -2.578083 -2.578081
141.900000 -2.578098 -2.578081
141.950000 -2.578113 -2.578081
142.000000 -2.578126 -2.578081
142.050000 -2.578139 -2.578081
142.100000 -2.578149 -2.578081
142.150000 -2.578158 -2.578081
142.200000 -2.578165 -2.578081
142.250000 -2.578169 -2.578081
142.300000 -2.578171 -2.578081
142.350000 -2.578171 -2.578081
142.400000 -2.578169 -2.578081
142.450000 -2.578164 -2.578081
142.500000 -2.578157 -2.578081
142.550000 -2.578148 -2.578081
142.600000 -2.578137 -2.578081
142.650000 -2.578125 -2.578081
142.700000 -2.578112 -2.578081
142.750000 -2.578099 -2.578081
142.800000 -2.578084 -2.578081
142.850000 -2.578070 -2.578081
142.900000 -2.578057 -2.578081
142.950000 -2.578044 -2.578081
143.000000 -2.578032 -2.578081
143.050000 -2.578021 -2.578081
143.100000 -2.578013 -2.578081
143.150000 -2.578006 -2.578081
143.200000 -2.578001 -2.578081
143.250000 -2.577998 -2.578081
143.300000 -2.577997 -2.578081
143.350000 -2.577999 -2.578081
143.400000 -2.578003 -2.578081
143.450000 -2.578008 -2.578081
143.500000 -2.578016 -2.578081
143.550000 -2.578025 -2.578081
143.600000 -2.578036 -2.578081
143.650000 -2.578048 -2.578081
143.700000 -2.578061 -2.578081
143.750000 -2.578074 -2.578081
143.800000 -2.578087 -2.578081
143.850000 -2.578100 -2.578081
143.900000 -2.578112 -2.578081
143.950000 -2.578123 -2.578081
144.000000 -2.578134 -2.578081
144.050000 -2.578142 -2.578081
144.100000 -2.578150 -2.578081
144.150000 -2.578155 -2.578081
144.200000 -2.578158 -2.578081
144.250000 -2.578159 -2.578081
144.300000 -2.578159 -2.578081
144.350000 -2.578156 -2.578081
144.400000 -2.578151 -2.578081
144.450000 -2.578145 -2.578081
144.500000 -2.578137 -2.578081
144.550000 -2.578127 -2.578081
144.600000 -2.578116 -2.578081
144.650000 -2.578105 -2.578081
144.700000 -2.578093 -2.578081
144.750000 -2.578081 -2.578081
144.800000 -2.578069 -2.578081
144.850000 -2.578057 -2.578081
144.900000 -2.578046 -2.578081
144.950000 -2.578036 -2.578081
145.000000 -2.578027 -2.578081
145.050000 -2.578020 -2.578081
145.100000 -2.578014 -2.578081
145.150000 -2.578011 -2.578081
145.200000 -2.578009 -2.578081
145.250000 -2.578009 -2.578081
145.300000 -2.578011 -2.578081
145.350000 -2.578014 -2.578081
145.400000 -2.578020 -2.578081
145.450000 -2.578027 -2.578081
145.500000 -2.578035 -2.578081
145.550000 -2.578045 -2.578081
145.600000 -2.578055 -2.578081
145.650000 -2.578066 -2.578081
145.700000 -2.578078 -2.578081
145.750000 -2.578089 -2.578081
145.800000 -2.578100 -2.578081
145.850000 -2.578111 -2.578081
145.900000 -2.578120 -2.578081
145.950000 -2.578129 -2.578081
146.000000 -2.578136 -2.578081
146.050000 -2.578142 -2.578081
146.100000 -2.578146 -2.578081
146.150000 -2.578148 -2.578081
146.200000 -2.578149 -2.578081
146.250000 -2.578148 -2.578081
146.300000 -2.578145 -2.578081
146.350000 -2.578140 -2.578081
146.400000 -2.578134 -2.578081
146.450000 -2.578127 -2.578081
146.500000 -2.578118 -2.578081
146.550000 -2.578109 -2.578081
146.600000 -2.578099 -2.578081
146.650000 -2.578088 -2.578081
146.700000 -2.578078 -2.578081
146.750000 -2.578067 -2.578081
146.800000 -2.578057 -2.578081
146.850000 -2.578048 -2.578081
146.900000 -2.578040 -2.578081
146.950000 -2.578033 -2.578081
147.000000 -2.578027 -2.578081
147.050000 -2.578022 -2.578081
147.100000 -2.578019 -2.578081
147.150000 -2.578018 -2.578081
147.200000 -2.578019 -2.578081
147.250000 -2.578021 -2.578081
147.300000 -2.578025 -2.578081
147.350000 -2.578030 -2.578081
147.400000 -2.578036 -2.578081
147.450000 -2.578044 -2.578081
147.500000 -2.578052 -2.578081
147.550000 -2.578061 -2.578081
147.600000 -2.578071 -2.578081
147.650000 -2.578081 -2.578081
147.700000 -2.578091 -2.578081
147.750000 -2.578100 -2.578081
147.800000 -2.578109 -2.578081
147.850000 -2.578117 -2.578081
147.900000 -2.578124 -2.578081
147.950000 -2.578130 -2.578081
148.000000 -2.578135 -2.578081
148.050000 -2.578138 -2.578081
148.100000 -2.578140 -2.578081
148.150000 -2.578140 -2.578081
148.200000 -2.578138 -2.578081
148.250000 -2.578136 -2.578081
148.300000 -2.578131 -2.578081
148.350000 -2.578126 -2.578081
148.400000 -2.578119 -2.578081
148.450000 -2.578111 -2.578081
148.500000 -2.578103 -2.578081
148.550000 -2.578094 -2.578081
148.600000 -2.578085 -2.578081
148.650000 -2.578076 -2.578081
148.700000 -2.578067 -2.578081
148.750000 -2.578058 -2.578081
148.800000 -2.578051 -2.578081
148.850000 -2.578044 -2.578081
148.900000 -2.578038 -2.578081
148.950000 -2.578033 -2.578081
149.000000 -2.578029 -2.578081
149.050000 -2.578027 -2.578081
149.100000 -2.578027 -2.578081
149.150000 -2.578027 -2.578081
149.200000 -2.578030 -2.578081
149.250000 -2.578033 -2.578081
149.300000 -2.578038 -2.578081
149.350000 -2.578044 -2.578081
149.400000 -2.578051 -2.578081
149.450000 -2.578058 -2.578081
149.500000 -2.578066 -2.578081
149.550000 -2.578075 -2.578081
149.600000 -2.578083 -2.578081
149.650000 -2.578092 -2.578081
149.700000 -2.578100 -2.578081
149.750000 -2.578107 -2.578081
149.800000 -2.578114 -2.578081
149.850000 -2.578120 -2.578081
149.900000 -2.578125 -2.578081
149.950000 -2.578129 -2.578081
150.000000 -2.578131 -2.578081
150.050000 -2.578132 -2.578081
150.100000 -2.578132 -2.578081
150.150000 -2.578130 -2.578081
150.200000 -2.578127 -2.578081
150.250000 -2.578123 -2.578081
150.300000 -2.578118 -2.578081
150.350000 -2.578112 -2.578081
150.400000 -2.578105 -2.578081
150.450000 -2.578098 -2.578081
150.500000 -2.578090 -2.578081
150.550000 -2.578082 -2.578081
150.600000 -2.578074 -2.578081
150.650000 -2.578067 -2.578081
150.700000 -2.578060 -2.578081
150.750000 -2.578053 -2.578081
150.800000 -2.578047 -2.578081
150.850000 -2.578042 -2.578081
150.900000 -2.578038 -2.578081
150.950000 -2.578036 -2.578081
151.000000 -2.578034 -2.578081
151.050000 -2.578034 -2.578081
151.100000 -2.578035 -2.578081
151.150000 -2.578037 -2.578081
151.200000 -2.578041 -2.578081
151.250000 -2.578045 -2.578081
151.300000 -2.578050 -2.578081
151.350000 -2.578056 -2.578081
151.400000 -2.578063 -2.578081
151.450000 -2.578070 -2.578081
151.500000 -2.578078 -2.578081
151.550000 -2.578085 -2.578081
151.600000 -2.578092 -2.578081
151.650000 -2.578099 -2.578081
151.700000 -2.578105 -2.578081
151.750000 -2.578111 -2.578081
151.800000 -2.578116 -2.578081
151.850000 -2.578120 -2.578081
151.900000 -2.578123 -2.578081
151.950000 -2.578125 -2.578081
152.000000 -2.578125 -2.578081
152.050000 -2.578125 -2.578081
152.100000 -2.578123 -2.578081
152.150000 -2.578120 -2.578081
152.200000 -2.578117 -2.578081
152.250000 -2.578112 -2.578081
152.300000 -2.578107 -2.578081
152.350000 -2.578100 -2.578081
152.400000 -2.578094 -2.578081
152.450000 -2.578087 -2.578081
152.500000 -2.578080 -2.578081
152.550000 -2.578074 -2.578081
152.600000 -2.578067 -2.578081
152.650000 -2.578061 -2.578081
152.700000 -2.578055 -2.578081
152.750000 -2.578050 -2.578081
152.800000 -2.578046 -2.578081
152.850000 -2.578043 -2.578081
152.900000 -2.578041 -2.578081
152.950000 -2.578040 -2.578081
153.000000 -2.578041 -2.578081
153.050000 -2.578042 -2.578081
153.100000 -2.578044 -2.578081
153.150000 -2.578047 -2.578081
153.200000 -2.578051 -2.578081
153.250000 -2.578056 -2.578081
153.300000 -2.578061 -2.578081
153.350000 -2.578067 -2.578081
153.400000 -2.578073 -2.578081
153.450000 -2.578080 -2.578081
153.500000 -2.578086 -2.578081
153.550000 -2.578092 -2.578081
153.600000 -2.578098 -2.578081
153.650000 -2.578104 -2.578081
153.700000 -2.578108 -2.578081
153.750000 -2.578112 -2.578081
153.800000 -2.578116 -2.578081
153.850000 -2.578118 -2.578081
153.900000 -2.578119 -2.578081
153.950000 -2.578119 -2.578081
154.000000 -2.578119 -2.578081
154.050000 -2.578117 -2.578081
154.100000 -2.578114 -2.578081
154.150000 -2.578111 -2.578081
154.200000 -2.578107 -2.578081
154.250000 -2.578102 -2.578081
154.300000 -2.578096 -2.578081
154.350000 -2.578091 -2.578081
154.400000 -2.578085 -2.578081
154.450000 -2.578079 -2.578081
154.500000 -2.578073 -2.578081
154.550000 -2.578067 -2.578081
154.600000 -2.578062 -2.578081
154.650000 -2.578058 -2.578081
154.700000 -2.578054 -2.578081
154.750000 -2.578050 -2.578081
154.800000 -2.578048 -2.578081
154.850000 -2.578046 -2.578081
154.900000 -2.578046 -2.578081
154.950000 -2.578046 -2.578081
155.000000 -2.578047 -2.578081
155.050000 -2.578050 -2.578081
155.100000 -2.578053 -2.578081
155.150000 -2.578056 -2.578081
155.200000 -2.578060 -2.578081
155.250000 -2.578065 -2.578081
155.300000 -2.578071 -2.578081
155.350000 -2.578076 -2.578081
155.400000 -2.578082 -2.578081
155.450000 -2.578087 -2.578081
155.500000 -2.578092 -2.578081
155.550000 -2.578097 -2.578081
155.600000 -2.578102 -2.578081
155.650000 -2.578106 -2.578081
155.700000 -2.578109 -2.578081
155.750000 -2.578112 -2.578081
155.800000 -2.578113 -2.578081
155.850000 -2.578114 -2.578081
155.900000 -2.578114 -2.578081
155.950000 -2.578113 -2.578081
156.000000 -2.578112 -2.578081
156.050000 -2.578109 -2.578081
156.100000 -2.578106 -2.578081
156.150000 -2.578102 -2.578081
156.200000 -2.578098 -2.578081
156.250000 -2.578093 -2.578081
156.300000 -2.578088 -2.578081
156.350000 -2.578083 -2.578081
156.400000 -2.578078 -2.578081
156.450000 -2.578073 -2.578081
156.500000 -2.578068 -2.578081
156.550000 -2.578064 -2.578081
156.600000 -2.578060 -2.578081
156.650000 -2.578056 -2.578081
156.700000 -2.578054 -2.578081
156.750000 -2.578052 -2.578081
156.800000 -2.578051 -2.578081
156.850000 -2.578051 -2.578081
156.900000 -2.578051 -2.578081
156.950000 -2.578052 -2.578081
157.000000 -2.578054 -2.578081
157.050000 -2.578057 -2.578081
157.100000 -2.578061 -2.578081
157.150000 -2.578064 -2.578081
157.200000 -2.578069 -2.578081
157.250000 -2.578073 -2.578081
157.300000 -2.578078 -2.578081
157.350000 -2.578083 -2.578081
157.400000 -2.578088 -2.578081
157.450000 -2.578092 -2.578081
157.500000 -2.578096 -2.578081
157.550000 -2.578100 -2.578081
157.600000 -2.578103 -2.578081
157.650000 -2.578106 -2.578081
157.700000 -2.578108 -2.578081
157.750000 -2.578109 -2.578081
157.800000 -2.578110 -2.578081
157.850000 -2.578110 -2.578081
157.900000 -2.578109 -2.578081
157.950000 -2.578107 -2.578081
158.000000 -2.578105 -2.578081
158.050000 -2.578102 -2.578081
158.100000 -2.578098 -2.578081
158.150000 -2.578094 -2.578081
158.200000 -2.578090 -2.578081
158.250000 -2.578086 -2.578081
158.300000 -2.578081 -2.578081
158.350000 -2.578077 -2.578081
158.400000 -2.578073 -2.578081
158.450000 -2.578069 -2.578081
158.500000 -2.578065 -2.578081
158.550000 -2.578062 -2.578081
158.600000 -2.578059 -2.578081
158.650000 -2.578057 -2.578081
158.700000 -2.578056 -2.578081
158.750000 -2.578055 -2.578081
158.800000 -2.578055 -2.578081
158.850000 -2.578055 -2.578081
158.900000 -2.578057 -2.578081
158.950000 -2.578059 -2.578081
159.000000 -2.578061 -2.578081
159.050000 -2.578064 -2.578081
159.100000 -2.578068 -2.578081
159.150000 -2.578071 -2.578081
159.200000 -2.578075 -2.578081
159.250000 -2.578080 -2.578081
159.300000 -2.578084 -2.578081
159.350000 -2.578088 -2.578081
159.400000 -2.578092 -2.578081
159.450000 -2.578095 -2.578081
159.500000 -2.578098 -2.578081
159.550000 -2.578101 -2.578081
159.600000 -2.578103 -2.578081
159.650000 -2.578105 -2.578081
159.700000 -2.578106 -2.578081
159.750000 -2.578106 -2.578081
159.800000 -2.578106 -2.578081
159.850000 -2.578105 -2.578081
159.900000 -2.578103 -2.578081
159.950000 -2.578101 -2.578081
160.000000 -2.578098 -2.578081
160.050000 -2.578095 -2.578081
160.100000 -2.578092 -2.578081
160.150000 -2.578088 -2.578081
160.200000 -2.578084 -2.578081
160.250000 -2.578080 -2.578081
160.300000 -2.578077 -2.578081
160.350000 -2.578073 -2.578081
160.400000 -2.578069 -2.578081
160.450000 -2.578066 -2.578081
160.500000 -2.578064 -2.578081
160.550000 -2.578062 -2.578081
160.600000 -2.578060 -2.578081
160.650000 -2.578059 -2.578081
160.700000 -2.578058 -2.578081
160.750000 -2.578058 -2.578081
160.800000 -2.578059 -2.578081
160.850000 -2.578060 -2.578081
160.900000 -2.578062 -2.578081
160.950000 -2.578064 -2.578081
161.000000 -2.578067 -2.578081
161.050000 -2.578070 -2.578081
161.100000 -2.578074 -2.578081
161.150000 -2.578077 -2.578081
161.200000 -2.578081 -2.578081
161.250000 -2.578084 -2.578081
161.300000 -2.578088 -2.578081
161.350000 -2.578091 -2.578081
161.400000 -2.578094 -2.578081
161.450000 -2.578097 -2.578081
161.500000 -2.578099 -2.578081
161.550000 -2.578101 -2.578081
161.600000 -2.578102 -2.578081
161.650000 -2.578103 -2.578081
161.700000 -2.578103 -2.578081
161.750000 -2.578102 -2.578081
161.800000 -2.578101 -2.578081
161.850000 -2.578100 -2.578081
161.900000 -2.578098 -2.578081
161.950000 -2.578095 -2.578081
162.000000 -2.578093 -2.578081
162.050000 -2.578090 -2.578081
162.100000 -2.578086 -2.578081
162.150000 -2.578083 -2.578081
162.200000 -2.578080 -2.578081
162.250000 -2.578076 -2.578081
162.300000 -2.578073 -2.578081
162.350000 -2.578070 -2.578081
162.400000 -2.578068 -2.578081
162.450000 -2.578065 -2.578081
162.500000 -2.578064 -2.578081
162.550000 -2.578062 -2.578081
162.600000 -2.578062 -2.578081
162.650000 -2.578061 -2.578081
162.700000 -2.578062 -2.578081
162.750000 -2.578062 -2.578081
162.800000 -2.578064 -2.578081
162.850000 -2.578065 -2.578081
162.900000 -2.578067 -2.578081
162.950000 -2.578070 -2.578081
163.000000 -2.578073 -2.578081
163.050000 -2.578075 -2.578081
163.100000 -2.578079 -2.578081
163.150000 -2.578082 -2.578081
163.200000 -2.578085 -2.578081
163.250000 -2.578088 -2.578081
163.300000 -2.578091 -2.578081
163.350000 -2.578093 -2.578081
163.400000 -2.578095 -2.578081
163.450000 -2.578097 -2.578081
163.500000 -2.578098 -2.578081
163.550000 -2.578099 -2.578081
163.600000 -2.578100 -2.578081
163.650000 -2.578100 -2.578081
163.700000 -2.578099 -2.578081
163.750000 -2.578098 -2.578081
163.800000 -2.578097 -2.578081
163.850000 -2.578095 -2.578081
163.900000 -2.578093 -2.578081
163.950000 -2.578090 -2.578081
164.000000 -2.578088 -2.578081
164.050000 -2.578085 -2.578081
164.100000 -2.578082 -2.578081
164.150000 -2.578079 -2.578081
164.200000 -2.578076 -2.578081
164.250000 -2.578074 -2.578081
164.300000 -2.578071 -2.578081
164.350000 -2.578069 -2.578081
164.400000 -2.578067 -2.578081
164.450000 -2.578066 -2.578081
164.500000 -2.578065 -2.578081
164.550000 -2.578064 -2.578081
164.600000 -2.578064 -2.578081
164.650000 -2.578064 -2.578081
164.700000 -2.578065 -2.578081
164.750000 -2.578066 -2.578081
164.800000 -2.578068 -2.578081
164.850000 -2.578070 -2.578081
164.900000 -2.578072 -2.578081
164.950000 -2.578074 -2.578081
165.000000 -2.578077 -2.578081
165.050000 -2.578080 -2.578081
165.100000 -2.578082 -2.578081
165.150000 -2.578085 -2.578081
165.200000 -2.578088 -2.578081
165.250000 -2.578090 -2.578081
165.300000 -2.578092 -2.578081
165.350000 -2.578094 -2.578081
165.400000 -2.578095 -2.578081
165.450000 -2.578096 -2.578081
165.500000 -2.578097 -2.578081
165.550000 -2.578097 -2.578081
165.600000 -2.578097 -2.578081
165.650000 -2.578097 -2.578081
165.700000 -2.578096 -2.578081
165.750000 -2.578094 -2.578081
165.800000 -2.578093 -2.578081
165.850000 -2.578091 -2.578081
165.900000 -2.578089 -2.578081
165.950000 -2.578086 -2.578081
166.000000 -2.578084 -2.578081
166.050000 -2.578081 -2.578081
166.100000 -2.578079 -2.578081
166.150000 -2.578076 -2.578081
166.200000 -2.578074 -2.578081
166.250000 -2.578072 -2.578081
166.300000 -2.578070 -2.578081
166.350000 -2.578069 -2.578081
166.400000 -2.578068 -2.578081
166.450000 -2.578067 -2.578081
166.500000 -2.578066 -2.578081
166.550000 -2.578066 -2.578081
166.600000 -2.578067 -2.578081
166.650000 -2.578068 -2.578081
166.700000 -2.578069 -2.578081
166.750000 -2.578070 -2.578081
166.800000 -2.578072 -2.578081
166.850000 -2.578074 -2.578081
166.900000 -2.578076 -2.578081
166.950000 -2.578078 -2.578081
167.000000 -2.578081 -2.578081
167.050000 -2.578083 -2.578081
167.100000 -2.578085 -2.578081
167.150000 -2.578087 -2.578081
167.200000 -2.578089 -2.578081
167.250000 -2.578091 -2.578081
167.300000 -2.578093 -2.578081
167.350000 -2.578094 -2.578081
167.400000 -2.578095 -2.578081
167.450000 -2.578095 -2.578081
167.500000 -2.578095 -2.578081
167.550000 -2.578095 -2.578081
167.600000 -2.578094 -2.578081
167.650000 -2.578093 -2.578081
167.700000 -2.578092 -2.578081
167.750000 -2.578091 -2.578081
167.800000 -2.578089 -2.578081
167.850000 -2.578087 -2.578081
167.900000 -2.578085 -2.578081
167.950000 -2.578083 -2.578081
168.000000 -2.578081 -2.578081
168.050000 -2.578078 -2.578081
168.100000 -2.578076 -2.578081
168.150000 -2.578074 -2.578081
168.200000 -2.578073 -2.578081
168.250000 -2.578071 -2.578081
168.300000 -2.578070 -2.578081
168.350000 -2.578069 -2.578081
168.400000 -2.578069 -2.578081
168.450000 -2.578068 -2.578081
168.500000 -2.578068 -2.578081
168.550000 -2.578069 -2.578081
168.600000 -2.578070 -2.578081
168.650000 -2.578071 -2.578081
168.700000 -2.578072 -2.578081
168.750000 -2.578074 -2.578081
168.800000 -2.578075 -2.578081
168.850000 -2.578077 -2.578081
168.900000 -2.578079 -2.578081
168.950000 -2.578081 -2.578081
169.000000 -2.578083 -2.578081
169.050000 -2.578085 -2.578081
169.100000 -2.578087 -2.578081
169.150000 -2.578089 -2.578081
169.200000 -2.578090 -2.578081
169.250000 -2.578091 -2.578081
169.300000 -2.578092 -2.578081
169.350000 -2.578093 -2.578081
169.400000 -2.578093 -2.578081
169.450000 -2.578093 -2.578081
169.500000 -2.578093 -2.578081
169.550000 -2.578092 -2.578081
169.600000 -2.578092 -2.578081
169.650000 -2.578090 -2.578081
169.700000 -2.578089 -2.578081
169.750000 -2.578087 -2.578081
169.800000 -2.578086 -2.578081
169.850000 -2.578084 -2.578081
169.900000 -2.578082 -2.578081
169.950000 -2.578080 -2.578081
170.000000 -2.578078 -2.578081
170.050000 -2.578077 -2.578081
170.100000 -2.578075 -2.578081
170.150000 -2.578074 -2.578081
170.200000 -2.578072 -2.578081
170.250000 -2.578071 -2.578081
170.300000 -2.578071 -2.578081
170.350000 -2.578070 -2.578081
170.400000 -2.578070 -2.578081
170.450000 -2.578070 -2.578081
170.500000 -2.578071 -2.578081
170.550000 -2.578071 -2.578081
170.600000 -2.578072 -2.578081
170.650000 -2.578074 -2.578081
170.700000 -2.578075 -2.578081
170.750000 -2.578077 -2.578081
170.800000 -2.578078 -2.578081
170.850000 -2.578080 -2.578081
170.900000 -2.578082 -2.578081
170.950000 -2.578083 -2.578081
171.000000 -2.578085 -2.578081
171.050000 -2.578087 -2.578081
171.100000 -2.578088 -2.578081
171.150000 -2.578089 -2.578081
171.200000 -2.578090 -2.578081
171.250000 -2.578091 -2.578081
171.300000 -2.578091 -2.578081
171.350000 -2.578092 -2.578081
171.400000 -2.578092 -2.578081
171.450000 -2.578091 -2.578081
171.500000 -2.578091 -2.578081
171.550000 -2.578090 -2.578081
171.600000 -2.578089 -2.578081
171.650000 -2.578088 -2.578081
171.700000 -2.578086 -2.578081
171.750000 -2.578085 -2.578081
171.800000 -2.578083 -2.578081
171.850000 -2.578082 -2.578081
171.900000 -2.578080 -2.578081
171.950000 -2.578078 -2.578081
172.000000 -2.578077 -2.578081
172.050000 -2.578075 -2.578081
172.100000 -2.578074 -2.578081
172.150000 -2.578073 -2.578081
172.200000 -2.578072 -2.578081
172.250000 -2.578072 -2.578081
172.300000 -2.578072 -2.578081
172.350000 -2.578072 -2.578081
172.400000 -2.578072 -2.578081
172.450000 -2.578072 -2.578081
172.500000 -2.578073 -2.578081
172.550000 -2.578074 -2.578081
172.600000 -2.578075 -2.578081
172.650000 -2.578076 -2.578081
172.700000 -2.578078 -2.578081
172.750000 -2.578079 -2.578081
172.800000 -2.578081 -2.578081
172.850000 -2.578082 -2.578081
172.900000 -2.578084 -2.578081
172.950000 -2.578085 -2.578081
173.000000 -2.578086 -2.578081
173.050000 -2.578087 -2.578081
173.100000 -2.578088 -2.578081
173.150000 -2.578089 -2.578081
173.200000 -2.578090 -2.578081
173.250000 -2.578090 -2.578081
173.300000 -2.578090 -2.578081
173.350000 -2.578090 -2.578081
173.400000 -2.578090 -2.578081
173.450000 -2.578089 -2.578081
173.500000 -2.578089 -2.578081
173.550000 -2.578088 -2.578081
173.600000 -2.578086 -2.578081
173.650000 -2.578085 -2.578081
173.700000 -2.578084 -2.578081
173.750000 -2.578083 -2.578081
173.800000 -2.578081 -2.578081
173.850000 -2.578080 -2.578081
173.900000 -2.578078 -2.578081
173.950000 -2.578077 -2.578081
174.000000 -2.578076 -2.578081
174.050000 -2.578075 -2.578081
174.100000 -2.578074 -2.578081
174.150000 -2.578073 -2.578081
174.200000 -2.578073 -2.578081
174.250000 -2.578073 -2.578081
174.300000 -2.578073 -2.578081
174.350000 -2.578073 -2.578081
174.400000 -2.578074 -2.578081
174.450000 -2.578074 -2.578081
174.500000 -2.578075 -2.578081
174.550000 -2.578076 -2.578081
174.600000 -2.578077 -2.578081
174.650000 -2.578078 -2.578081
174.700000 -2.578080 -2.578081
174.750000 -2.578081 -2.578081
174.800000 -2.578082 -2.578081
174.850000 -2.578084 -2.578081
174.900000 -2.578085 -2.578081
174.950000 -2.578086 -2.578081
175.000000 -2.578087 -2.578081
175.050000 -2.578088 -2.578081
175.100000 -2.578088 -2.578081
175.150000 -2.578089 -2.578081
175.200000 -2.578089 -2.578081
175.250000 -2.578089 -2.578081
175.300000 -2.578089 -2.578081
175.350000 -2.578089 -2.578081
175.400000 -2.578088 -2.578081
175.450000 -2.578087 -2.578081
175.500000 -2.578086 -2.578081
175.550000 -2.578085 -2.578081
175.600000 -2.578084 -2.578081
175.650000 -2.578083 -2.578081
175.700000 -2.578082 -2.578081
175.750000 -2.578081 -2.578081
175.800000 -2.578080 -2.578081
175.850000 -2.578078 -2.578081
175.900000 -2.578077 -2.578081
175.950000 -2.578076 -2.578081
176.000000 -2.578076 -2.578081
176.050000 -2.578075 -2.578081
176.100000 -2.578074 -2.578081
176.150000 -2.578074 -2.578081
176.200000 -2.578074 -2.578081
176.250000 -2.578074 -2.578081
176.300000 -2.578074 -2.578081
176.350000 -2.578075 -2.578081
176.400000 -2.578075 -2.578081
176.450000 -2.578076 -2.578081
176.500000 -2.578077 -2.578081
176.550000 -2.578078 -2.578081
176.600000 -2.578079 -2.578081
176.650000 -2.578080 -2.578081
176.700000 -2.578081 -2.578081
176.750000 -2.578082 -2.578081
176.800000 -2.578084 -2.578081
176.850000 -2.578085 -2.578081
176.900000 -2.578085 -2.578081
176.950000 -2.578086 -2.578081
177.000000 -2.578087 -2.578081
177.050000 -2.578088 -2.578081
177.100000 -2.578088 -2.578081
177.150000 -2.578088 -2.578081
177.200000 -2.578088 -2.578081
177.250000 -2.578088 -2.578081
177.300000 -2.578088 -2.578081
177.350000 -2.578087 -2.578081
177.400000 -2.578086 -2.578081
177.450000 -2.578086 -2.578081
177.500000 -2.578085 -2.578081
177.550000 -2.578084 -2.578081
177.600000 -2.578083 -2.578081
177.650000 -2.578082 -2.578081
177.700000 -2.578081 -2.578081
177.750000 -2.578080 -2.578081
177.800000 -2.578079 -2.578081
177.850000 -2.578078 -2.578081
177.900000 -2.578077 -2.578081
177.950000 -2.578076 -2.578081
178.000000 -2.578076 -2.578081
178.050000 -2.578075 -2.578081
178.100000 -2.578075 -2.578081
178.150000 -2.578075 -2.578081
178.200000 -2.578075 -2.578081
178.250000 -2.578075 -2.578081
178.300000 -2.578076 -2.578081
178.350000 -2.578076 -2.578081
178.400000 -2.578077 -2.578081
178.450000 -2.578078 -2.578081
178.500000 -2.578079 -2.578081
178.550000 -2.578080 -2.578081
178.600000 -2.578081 -2.578081
178.650000 -2.578082 -2.578081
178.700000 -2.578083 -2.578081
178.750000 -2.578083 -2.578081
178.800000 -2.578084 -2.578081
178.850000 -2.578085 -2.578081
178.900000 -2.578086 -2.578081
178.950000 -2.578086 -2.578081
179.000000 -2.578087 -2.578081
179.050000 -2.578087 -2.578081
179.100000 -2.578087 -2.578081
179.150000 -2.578087 -2.578081
179.200000 -2.578087 -2.578081
179.250000 -2.578087 -2.578081
179.300000 -2.578086 -2.578081
179.350000 -2.578085 -2.578081
179.400000 -2.578085 -2.578081
179.450000 -2.578084 -2.578081
179.500000 -2.578083 -2.578081
179.550000 -2.578082 -2.578081
179.600000 -2.578081 -2.578081
179.650000 -2.578080 -2.578081
179.700000 -2.578080 -2.578081
179.750000 -2.578079 -2.578081
179.800000 -2.578078 -2.578081
179.850000 -2.578077 -2.578081
179.900000 -2.578077 -2.578081
179.950000 -2.578076 -2.578081
180.000000 -2.578076 -2.578081
180.050000 -2.578076 -2.578081
180.100000 -2.578076 -2.578081
180.150000 -2.578076 -2.578081
180.200000 -2.578076 -2.578081
180.250000 -2.578077 -2.578081
180.300000 -2.578077 -2.578081
180.350000 -2.578078 -2.578081
180.400000 -2.578078 -2.578081
180.450000 -2.578079 -2.578081
180.500000 -2.578080 -2.578081
180.550000 -2.578081 -2.578081
180.600000 -2.578082 -2.578081
180.650000 -2.578083 -2.578081
180.700000 -2.578083 -2.578081
180.750000 -2.578084 -2.578081
180.800000 -2.578085 -2.578081
180.850000 -2.578085 -2.578081
180.900000 -2.578086 -2.578081
180.950000 -2.578086 -2.578081
181.000000 -2.578086 -2.578081
181.050000 -2.578086 -2.578081
181.100000 -2.578086 -2.578081
181.150000 -2.578086 -2.578081
181.200000 -2.578086 -2.578081
181.250000 -2.578085 -2.578081
181.300000 -2.578085 -2.578081
181.350000 -2.578084 -2.578081
181.400000 -2.578083 -2.578081
181.450000 -2.578083 -2.578081
181.500000 -2.578082 -2.578081
181.550000 -2.578081 -2.578081
181.600000 -2.578080 -2.578081
181.650000 -2.578080 -2.578081
181.700000 -2.578079 -2.578081
181.750000 -2.578078 -2.578081
181.800000 -2.578078 -2.578081
181.850000 -2.578077 -2.578081
181.900000 -2.578077 -2.578081
181.950000 -2.578077 -2.578081
182.000000 -2.578077 -2.578081
182.050000 -2.578077 -2.578081
182.100000 -2.578077 -2.578081
182.150000 -2.578077 -2.578081
182.200000 -2.578077 -2.578081
182.250000 -2.578078 -2.578081
182.300000 -2.578078 -2.578081
182.350000 -2.578079 -2.578081
182.400000 -2.578080 -2.578081
182.450000 -2.578080 -2.578081
182.500000 -2.578081 -2.578081
182.550000 -2.578082 -2.578081
182.600000 -2.578083 -2.578081
182.650000 -2.578083 -2.578081
182.700000 -2.578084 -2.578081
182.750000 -2.578084 -2.578081
182.800000 -2.578085 -2.578081
182.850000 -2.578085 -2.578081
182.900000 -2.578086 -2.578081
182.950000 -2.578086 -2.578081
183.000000 -2.578086 -2.578081
183.050000 -2.578086 -2.578081
183.100000 -2.578085 -2.578081
183.150000 -2.578085 -2.578081
183.200000 -2.578085 -2.578081
183.250000 -2.578084 -2.578081
183.300000 -2.578084 -2.578081
183.350000 -2.578083 -2.578081
183.400000 -2.578082 -2.578081
183.450000 -2.578082 -2.578081
183.500000 -2.578081 -2.578081
183.550000 -2.578080 -2.578081
183.600000 -2.578080 -2.578081
183.650000 -2.578079 -2.578081
183.700000 -2.578078 -2.578081
183.750000 -2.578078 -2.578081
183.800000 -2.578078 -2.578081
183.850000 -2.578077 -2.578081
183.900000 -2.578077 -2.578081
183.950000 -2.578077 -2.578081
184.000000 -2.578077 -2.578081
184.050000 -2.578077 -2.578081
184.100000 -2.578078 -2.578081
184.150000 -2.578078 -2.578081
184.200000 -2.578078 -2.578081
184.250000 -2.578079 -2.578081
184.300000 -2.578079 -2.578081
184.350000 -2.578080 -2.578081
184.400000 -2.578081 -2.578081
184.450000 -2.578081 -2.578081
184.500000 -2.578082 -2.578081
184.550000 -2.578083 -2.578081
184.600000 -2.578083 -2.578081
184.650000 -2.578084 -2.578081
184.700000 -2.578084 -2.578081
184.750000 -2.578085 -2.578081
184.800000 -2.578085 -2.578081
184.850000 -2.578085 -2.578081
184.900000 -2.578085 -2.578081
184.950000 -2.578085 -2.578081
185.000000 -2.578085 -2.578081
185.050000 -2.578085 -2.578081
185.100000 -2.578084 -2.578081
185.150000 -2.578084 -2.578081
185.200000 -2.578084 -2.578081
185.250000 -2.578083 -2.578081
185.300000 -2.578083 -2.578081
185.350000 -2.578082 -2.578081
185.400000 -2.578081 -2.578081
185.450000 -2.578081 -2.578081
185.500000 -2.578080 -2.578081
185.550000 -2.578080 -2.578081
185.600000 -2.578079 -2.578081
185.650000 -2.578079 -2.578081
185.700000 -2.578078 -2.578081
185.750000 -2.578078 -2.578081
185.800000 -2.578078 -2.578081
185.850000 -2.578078 -2.578081
185.900000 -2.578078 -2.578081
185.950000 -2.578078 -2.578081
186.000000 -2.578078 -2.578081
186.050000 -2.578078 -2.578081
186.100000 -2.578079 -2.578081
186.150000 -2.578079 -2.578081
186.200000 -2.578079 -2.578081
186.250000 -2.578080 -2.578081
186.300000 -2.578080 -2.578081
186.350000 -2.578081 -2.578081
186.400000 -2.578081 -2.578081
186.450000 -2.578082 -2.578081
186.500000 -2.578083 -2.578081
186.550000 -2.578083 -2.578081
186.600000 -2.578083 -2.578081
186.650000 -2.578084 -2.578081
186.700000 -2.578084 -2.578081
186.750000 -2.578084 -2.578081
186.800000 -2.578085 -2.578081
186.850000 -2.578085 -2.578081
186.900000 -2.578085 -2.578081
186.950000 -2.578084 -2.578081
