fit_time[ns] Functional_fit[mV] Thermal_fit[mV]
3.700000 42.452097 37.795627
3.750000 42.823846 37.130728
3.800000 43.039508 36.477441
3.850000 43.079721 35.835550
3.900000 42.930340 35.204841
3.950000 42.582689 34.585107
4.000000 42.033674 33.976143
4.050000 41.285745 33.377750
4.100000 40.346721 32.789732
4.150000 39.229472 32.211896
4.200000 37.951485 31.644056
4.250000 36.534317 31.086026
4.300000 35.002945 30.537627
4.350000 33.385057 29.998682
4.400000 31.710271 29.469017
4.450000 30.009331 28.948462
4.500000 28.313283 28.436852
4.550000 26.652663 27.934023
4.600000 25.056715 27.439815
4.650000 23.552652 26.954072
4.700000 22.164995 26.476639
4.750000 20.914983 26.007368
4.800000 19.820088 25.546109
4.850000 18.893632 25.092718
4.900000 18.144523 24.647053
4.950000 17.577109 24.208976
5.000000 17.191148 23.778349
5.050000 16.981907 23.355039
5.100000 16.940366 22.938916
5.150000 17.053535 22.529849
5.200000 17.304865 22.127713
5.250000 17.674739 21.732385
5.300000 18.141042 21.343743
5.350000 18.679778 20.961667
5.400000 19.265721 20.586042
5.450000 19.873092 20.216753
5.500000 20.476231 19.853688
5.550000 21.050259 19.496735
5.600000 21.571697 19.145788
5.650000 22.019048 18.800740
5.700000 22.373306 18.461487
5.750000 22.618400 18.127927
5.800000 22.741545 17.799960
5.850000 22.733506 17.477487
5.900000 22.588764 17.160413
5.950000 22.305584 16.848642
6.000000 21.885980 16.542082
6.050000 21.335588 16.240642
6.100000 20.663444 15.944232
6.150000 19.881686 15.652764
6.200000 19.005169 15.366153
6.250000 18.051031 15.084313
6.300000 17.038201 14.807163
6.350000 15.986871 14.534619
6.400000 14.917946 14.266604
6.450000 13.852490 14.003037
6.500000 12.811177 13.743842
6.550000 11.813757 13.488944
6.600000 10.878567 13.238267
6.650000 10.022082 12.991740
6.700000 9.258522 12.749291
6.750000 8.599528 12.510850
6.800000 8.053913 12.276347
6.850000 7.627485 12.045715
6.900000 7.322954 11.818888
6.950000 7.139927 11.595800
7.000000 7.074971 11.376387
7.050000 7.121766 11.160586
7.100000 7.271321 10.948336
7.150000 7.512257 10.739576
7.200000 7.831149 10.534246
7.250000 8.212911 10.332287
7.300000 8.641218 10.133643
7.350000 9.098949 9.938257
7.400000 9.568648 9.746074
7.450000 10.032976 9.557038
7.500000 10.475158 9.371097
7.550000 10.879403 9.188198
7.600000 11.231293 9.008290
7.650000 11.518125 8.831322
7.700000 11.729207 8.657244
7.750000 11.856090 8.486007
7.800000 11.892742 8.317564
7.850000 11.835657 8.151867
7.900000 11.683891 7.988869
7.950000 11.439035 7.828526
8.000000 11.105127 7.670793
8.050000 10.688491 7.515626
8.100000 10.197532 7.362981
8.150000 9.642477 7.212817
8.200000 9.035067 7.065091
8.250000 8.388231 6.919764
8.300000 7.715721 6.776794
8.350000 7.031743 6.636142
8.400000 6.350575 6.497769
8.450000 5.686201 6.361638
8.500000 5.051952 6.227710
8.550000 4.460171 6.095950
8.600000 3.921917 5.966321
8.650000 3.446700 5.838786
8.700000 3.042266 5.713313
8.750000 2.714432 5.589865
8.800000 2.466971 5.468410
8.850000 2.301555 5.348915
8.900000 2.217753 5.231346
8.950000 2.213083 5.115672
9.000000 2.283113 5.001861
9.050000 2.421619 4.889883
9.100000 2.620775 4.779707
9.150000 2.871389 4.671304
9.200000 3.163167 4.564643
9.250000 3.485000 4.459697
9.300000 3.825266 4.356436
9.350000 4.172138 4.254833
9.400000 4.513899 4.154862
9.450000 4.839235 4.056493
9.500000 5.137525 3.959703
9.550000 5.399094 3.864463
9.600000 5.615452 3.770750
9.650000 5.779483 3.678537
9.700000 5.885605 3.587800
9.750000 5.929879 3.498515
9.800000 5.910083 3.410658
9.850000 5.825730 3.324205
9.900000 5.678050 3.239134
9.950000 5.469920 3.155422
10.000000 5.205757 3.073047
10.050000 4.891375 2.991986
10.100000 4.533804 2.912218
10.150000 4.141087 2.833723
10.200000 3.722045 2.756478
10.250000 3.286042 2.680465
10.300000 2.842722 2.605662
10.350000 2.401761 2.532050
10.400000 1.972614 2.459610
10.450000 1.564273 2.388322
10.500000 1.185041 2.318168
10.550000 0.842338 2.249129
10.600000 0.542517 2.181187
10.650000 0.290729 2.114325
10.700000 0.090807 2.048524
10.750000 -0.054806 1.983767
10.800000 -0.145091 1.920038
10.850000 -0.180453 1.857320
10.900000 -0.162684 1.795596
10.950000 -0.094886 1.734851
11.000000 0.018630 1.675068
11.050000 0.172482 1.616232
11.100000 0.360378 1.558327
11.150000 0.575290 1.501339
11.200000 0.809661 1.445252
11.250000 1.055597 1.390052
11.300000 1.305090 1.335725
11.350000 1.550218 1.282257
11.400000 1.783350 1.229633
11.450000 1.997341 1.177841
11.500000 2.185703 1.126866
11.550000 2.342757 1.076696
11.600000 2.463770 1.027317
11.650000 2.545055 0.978717
11.700000 2.584042 0.930883
11.750000 2.579327 0.883804
11.800000 2.530684 0.837466
11.850000 2.439045 0.791858
11.900000 2.306454 0.746968
11.950000 2.135991 0.702785
12.000000 1.931674 0.659297
12.050000 1.698333 0.616493
12.100000 1.441471 0.574362
12.150000 1.167107 0.532894
12.200000 0.881611 0.492077
12.250000 0.591532 0.451902
12.300000 0.303422 0.412358
12.350000 0.023671 0.373434
12.400000 -0.241658 0.335122
12.450000 -0.486981 0.297411
12.500000 -0.707323 0.260291
12.550000 -0.898442 0.223754
12.600000 -1.056917 0.187789
12.650000 -1.180225 0.152388
12.700000 -1.266788 0.117542
12.750000 -1.315994 0.083241
12.800000 -1.328197 0.049478
12.850000 -1.304683 0.016244
12.900000 -1.247625 -0.016471
12.950000 -1.160006 -0.048674
13.000000 -1.045526 -0.080373
13.050000 -0.908495 -0.111576
13.100000 -0.753705 -0.142291
13.150000 -0.586304 -0.172527
13.200000 -0.411646 -0.202290
13.250000 -0.235159 -0.231588
13.300000 -0.062197 -0.260429
13.350000 0.102095 -0.288819
13.400000 0.252909 -0.316766
13.450000 0.385892 -0.344278
13.500000 0.497252 -0.371360
13.550000 0.583837 -0.398019
13.600000 0.643214 -0.424264
13.650000 0.673708 -0.450099
13.700000 0.674438 -0.475531
13.750000 0.645319 -0.500567
13.800000 0.587047 -0.525214
13.850000 0.501071 -0.549477
13.900000 0.389538 -0.573362
13.950000 0.255219 -0.596875
14.000000 0.101432 -0.620022
14.050000 -0.068058 -0.642810
14.100000 -0.249147 -0.665243
14.150000 -0.437502 -0.687327
14.200000 -0.628681 -0.709068
14.250000 -0.818244 -0.730472
14.300000 -1.001876 -0.751542
14.350000 -1.175491 -0.772286
14.400000 -1.335333 -0.792707
14.450000 -1.478070 -0.812812
14.500000 -1.600869 -0.832604
14.550000 -1.701461 -0.852089
14.600000 -1.778187 -0.871272
14.650000 -1.830032 -0.890158
14.700000 -1.856634 -0.908751
14.750000 -1.858285 -0.927055
14.800000 -1.835909 -0.945076
14.850000 -1.791025 -0.962818
14.900000 -1.725695 -0.980285
14.950000 -1.642465 -0.997481
15.000000 -1.544283 -1.014411
15.050000 -1.434421 -1.031079
15.100000 -1.316379 -1.047489
15.150000 -1.193795 -1.063645
15.200000 -1.070343 -1.079551
15.250000 -0.949643 -1.095212
15.300000 -0.835164 -1.110630
15.350000 -0.730139 -1.125809
15.400000 -0.637489 -1.140754
15.450000 -0.559748 -1.155469
15.500000 -0.499011 -1.169955
15.550000 -0.456884 -1.184218
15.600000 -0.434456 -1.198261
15.650000 -0.432279 -1.212087
15.700000 -0.450364 -1.225700
15.750000 -0.488194 -1.239102
15.800000 -0.544745 -1.252298
15.850000 -0.618526 -1.265290
15.900000 -0.707622 -1.278082
15.950000 -0.809757 -1.290677
16.000000 -0.922357 -1.303077
16.050000 -1.042624 -1.315287
16.100000 -1.167613 -1.327308
16.150000 -1.294307 -1.339144
16.200000 -1.419704 -1.350797
16.250000 -1.540888 -1.362272
16.300000 -1.655105 -1.373569
16.350000 -1.759833 -1.384693
16.400000 -1.852838 -1.395645
16.450000 -1.932231 -1.406429
16.500000 -1.996506 -1.417047
16.550000 -2.044577 -1.427501
16.600000 -2.075789 -1.437795
16.650000 -2.089936 -1.447931
16.700000 -2.087251 -1.457910
16.750000 -2.068395 -1.467737
16.800000 -2.034427 -1.477412
16.850000 -1.986776 -1.486939
16.900000 -1.927189 -1.496319
16.950000 -1.857684 -1.505555
17.000000 -1.780495 -1.514650
17.050000 -1.698002 -1.523605
17.100000 -1.612673 -1.532422
17.150000 -1.526999 -1.541104
17.200000 -1.443425 -1.549653
17.250000 -1.364290 -1.558071
17.300000 -1.291768 -1.566359
17.350000 -1.227819 -1.574521
17.400000 -1.174134 -1.582557
17.450000 -1.132107 -1.590470
17.500000 -1.102797 -1.598262
17.550000 -1.086910 -1.605935
17.600000 -1.084790 -1.613489
17.650000 -1.096413 -1.620929
17.700000 -1.121398 -1.628254
17.750000 -1.159025 -1.635467
17.800000 -1.208256 -1.642569
17.850000 -1.267771 -1.649563
17.900000 -1.336009 -1.656450
17.950000 -1.411210 -1.663232
18.000000 -1.491469 -1.669909
18.050000 -1.574780 -1.676485
18.100000 -1.659102 -1.682960
18.150000 -1.742399 -1.689336
18.200000 -1.822704 -1.695614
18.250000 -1.898162 -1.701797
18.300000 -1.967077 -1.707884
18.350000 -2.027955 -1.713879
18.400000 -2.079535 -1.719783
18.450000 -2.120821 -1.725596
18.500000 -2.151098 -1.731320
18.550000 -2.169950 -1.736957
18.600000 -2.177261 -1.742508
18.650000 -2.173213 -1.747974
18.700000 -2.158278 -1.753357
18.750000 -2.133195 -1.758657
18.800000 -2.098950 -1.763877
18.850000 -2.056745 -1.769017
18.900000 -2.007961 -1.774078
18.950000 -1.954119 -1.779063
19.000000 -1.896842 -1.783971
19.050000 -1.837802 -1.788805
19.100000 -1.778687 -1.793565
19.150000 -1.721149 -1.798252
19.200000 -1.666765 -1.802868
19.250000 -1.616997 -1.807413
19.300000 -1.573158 -1.811889
19.350000 -1.536379 -1.816297
19.400000 -1.507585 -1.820638
19.450000 -1.487473 -1.824913
19.500000 -1.476502 -1.829123
19.550000 -1.474884 -1.833269
19.600000 -1.482581 -1.837351
19.650000 -1.499316 -1.841371
19.700000 -1.524580 -1.845331
19.750000 -1.557654 -1.849230
19.800000 -1.597629 -1.853069
19.850000 -1.643433 -1.856850
19.900000 -1.693865 -1.860574
19.950000 -1.747625 -1.864241
20.000000 -1.803352 -1.867853
20.050000 -1.859659 -1.871409
20.100000 -1.915172 -1.874912
20.150000 -1.968561 -1.878361
20.200000 -2.018576 -1.881757
20.250000 -2.064081 -1.885103
20.300000 -2.104072 -1.888397
20.350000 -2.137712 -1.891641
20.400000 -2.164339 -1.894836
20.450000 -2.183487 -1.897983
20.500000 -2.194890 -1.901082
20.550000 -2.198485 -1.904133
20.600000 -2.194415 -1.907139
20.650000 -2.183012 -1.910098
20.700000 -2.164794 -1.913013
20.750000 -2.140441 -1.915884
20.800000 -2.110778 -1.918711
20.850000 -2.076751 -1.921495
20.900000 -2.039397 -1.924237
20.950000 -1.999818 -1.926938
21.000000 -1.959152 -1.929597
21.050000 -1.918539 -1.932216
21.100000 -1.879095 -1.934796
21.150000 -1.841885 -1.937336
21.200000 -1.807891 -1.939838
21.250000 -1.777993 -1.942302
21.300000 -1.752945 -1.944728
21.350000 -1.733363 -1.947118
21.400000 -1.719705 -1.949472
21.450000 -1.712269 -1.951790
21.500000 -1.711183 -1.954073
21.550000 -1.716407 -1.956321
21.600000 -1.727741 -1.958535
21.650000 -1.744827 -1.960716
21.700000 -1.767166 -1.962864
21.750000 -1.794132 -1.964979
21.800000 -1.824990 -1.967063
21.850000 -1.858919 -1.969114
21.900000 -1.895036 -1.971135
21.950000 -1.932413 -1.973125
22.000000 -1.970113 -1.975085
22.050000 -2.007203 -1.977016
22.100000 -2.042788 -1.978917
22.150000 -2.076026 -1.980789
22.200000 -2.106152 -1.982634
22.250000 -2.132498 -1.984450
22.300000 -2.154503 -1.986239
22.350000 -2.171731 -1.988001
22.400000 -2.183877 -1.989736
22.450000 -2.190771 -1.991445
22.500000 -2.192384 -1.993128
22.550000 -2.188822 -1.994786
22.600000 -2.180323 -1.996419
22.650000 -2.167245 -1.998027
22.700000 -2.150059 -1.999611
22.750000 -2.129331 -2.001170
22.800000 -2.105709 -2.002707
22.850000 -2.079898 -2.004220
22.900000 -2.052649 -2.005710
22.950000 -2.024734 -2.007178
23.000000 -1.996924 -2.008624
23.050000 -1.969974 -2.010048
23.100000 -1.944601 -2.011450
23.150000 -1.921465 -2.012831
23.200000 -1.901155 -2.014192
23.250000 -1.884176 -2.015532
23.300000 -1.870935 -2.016852
23.350000 -1.861735 -2.018151
23.400000 -1.856766 -2.019432
23.450000 -1.856108 -2.020693
23.500000 -1.859722 -2.021934
23.550000 -1.867465 -2.023158
23.600000 -1.879085 -2.024362
23.650000 -1.894236 -2.025549
23.700000 -1.912487 -2.026718
23.750000 -1.933336 -2.027869
23.800000 -1.956221 -2.029003
23.850000 -1.980540 -2.030120
23.900000 -2.005664 -2.031220
23.950000 -2.030956 -2.032303
24.000000 -2.055788 -2.033370
24.050000 -2.079553 -2.034421
24.100000 -2.101687 -2.035456
24.150000 -2.121674 -2.036476
24.200000 -2.139069 -2.037480
24.250000 -2.153497 -2.038469
24.300000 -2.164671 -2.039444
24.350000 -2.172391 -2.040403
24.400000 -2.176551 -2.041348
24.450000 -2.177137 -2.042279
24.500000 -2.174231 -2.043196
24.550000 -2.167998 -2.044100
24.600000 -2.158691 -2.044989
24.650000 -2.146633 -2.045865
24.700000 -2.132212 -2.046728
24.750000 -2.115872 -2.047579
24.800000 -2.098093 -2.048416
24.850000 -2.079387 -2.049241
24.900000 -2.060275 -2.050053
24.950000 -2.041282 -2.050853
25.000000 -2.022916 -2.051641
25.050000 -2.005659 -2.052417
25.100000 -1.989957 -2.053182
25.150000 -1.976204 -2.053935
25.200000 -1.964737 -2.054677
25.250000 -1.955825 -2.055408
25.300000 -1.949667 -2.056127
25.350000 -1.946387 -2.056836
25.400000 -1.946031 -2.057535
25.450000 -1.948567 -2.058222
25.500000 -1.953891 -2.058900
25.550000 -1.961828 -2.059567
25.600000 -1.972137 -2.060224
25.650000 -1.984523 -2.060872
25.700000 -1.998640 -2.061510
25.750000 -2.014106 -2.062138
25.800000 -2.030510 -2.062756
25.850000 -2.047426 -2.063366
25.900000 -2.064422 -2.063966
25.950000 -2.081073 -2.064558
26.000000 -2.096970 -2.065140
26.050000 -2.111732 -2.065714
26.100000 -2.125015 -2.066279
26.150000 -2.136519 -2.066835
26.200000 -2.145997 -2.067384
26.250000 -2.153257 -2.067924
26.300000 -2.158171 -2.068456
26.350000 -2.160670 -2.068980
26.400000 -2.160752 -2.069496
26.450000 -2.158476 -2.070004
26.500000 -2.153960 -2.070505
26.550000 -2.147379 -2.070999
26.600000 -2.138956 -2.071484
26.650000 -2.128957 -2.071963
26.700000 -2.117686 -2.072435
26.750000 -2.105470 -2.072899
26.800000 -2.092657 -2.073356
26.850000 -2.079600 -2.073807
26.900000 -2.066655 -2.074251
26.950000 -2.054164 -2.074688
27.000000 -2.042453 -2.075119
27.050000 -2.031821 -2.075543
27.100000 -2.022531 -2.075961
27.150000 -2.014809 -2.076373
27.200000 -2.008833 -2.076778
27.250000 -2.004734 -2.077178
27.300000 -2.002591 -2.077571
27.350000 -2.002430 -2.077959
27.400000 -2.004227 -2.078340
27.450000 -2.007906 -2.078716
27.500000 -2.013345 -2.079087
27.550000 -2.020377 -2.079452
27.600000 -2.028799 -2.079811
27.650000 -2.038375 -2.080165
27.700000 -2.048843 -2.080514
27.750000 -2.059924 -2.080858
27.800000 -2.071329 -2.081196
27.850000 -2.082764 -2.081529
27.900000 -2.093943 -2.081858
27.950000 -2.104590 -2.082181
28.000000 -2.114448 -2.082500
28.050000 -2.123286 -2.082814
28.100000 -2.130905 -2.083123
28.150000 -2.137139 -2.083427
28.200000 -2.141863 -2.083727
28.250000 -2.144992 -2.084023
28.300000 -2.146484 -2.084314
28.350000 -2.146341 -2.084601
28.400000 -2.144606 -2.084883
28.450000 -2.141363 -2.085162
28.500000 -2.136732 -2.085436
28.550000 -2.130869 -2.085706
28.600000 -2.123955 -2.085972
28.650000 -2.116198 -2.086234
28.700000 -2.107821 -2.086492
28.750000 -2.099060 -2.086746
28.800000 -2.090155 -2.086997
28.850000 -2.081346 -2.087243
28.900000 -2.072865 -2.087487
28.950000 -2.064931 -2.087726
29.000000 -2.057745 -2.087962
29.050000 -2.051483 -2.088194
29.100000 -2.046296 -2.088423
29.150000 -2.042301 -2.088649
29.200000 -2.039585 -2.088871
29.250000 -2.038197 -2.089089
29.300000 -2.038154 -2.089305
29.350000 -2.039435 -2.089517
29.400000 -2.041987 -2.089726
29.450000 -2.045723 -2.089932
29.500000 -2.050529 -2.090135
29.550000 -2.056264 -2.090335
29.600000 -2.062768 -2.090532
29.650000 -2.069862 -2.090726
29.700000 -2.077356 -2.090917
29.750000 -2.085052 -2.091106
29.800000 -2.092754 -2.091291
29.850000 -2.100267 -2.091474
29.900000 -2.107404 -2.091654
29.950000 -2.113993 -2.091831
30.000000 -2.119881 -2.092006
30.050000 -2.124931 -2.092178
30.100000 -2.129036 -2.092347
30.150000 -2.132112 -2.092514
30.200000 -2.134104 -2.092679
30.250000 -2.134987 -2.092841
30.300000 -2.134764 -2.093001
30.350000 -2.133466 -2.093158
30.400000 -2.131152 -2.093313
30.450000 -2.127907 -2.093465
30.500000 -2.123837 -2.093616
30.550000 -2.119066 -2.093764
30.600000 -2.113737 -2.093910
30.650000 -2.108002 -2.094053
30.700000 -2.102020 -2.094195
30.750000 -2.095955 -2.094335
30.800000 -2.089969 -2.094472
30.850000 -2.084218 -2.094607
30.900000 -2.078851 -2.094741
30.950000 -2.074001 -2.094872
31.000000 -2.069787 -2.095001
31.050000 -2.066310 -2.095129
31.100000 -2.063647 -2.095254
31.150000 -2.061854 -2.095378
31.200000 -2.060964 -2.095500
31.250000 -2.060985 -2.095620
31.300000 -2.061902 -2.095738
31.350000 -2.063676 -2.095855
31.400000 -2.066247 -2.095970
31.450000 -2.069536 -2.096083
31.500000 -2.073447 -2.096194
31.550000 -2.077869 -2.096304
31.600000 -2.082680 -2.096412
31.650000 -2.087752 -2.096519
31.700000 -2.092951 -2.096624
31.750000 -2.098142 -2.096727
31.800000 -2.103194 -2.096829
31.850000 -2.107982 -2.096929
31.900000 -2.112390 -2.097028
31.950000 -2.116314 -2.097125
32.000000 -2.119665 -2.097221
32.050000 -2.122370 -2.097316
32.100000 -2.124374 -2.097409
32.150000 -2.125642 -2.097500
32.200000 -2.126157 -2.097591
32.250000 -2.125925 -2.097680
32.300000 -2.124967 -2.097768
32.350000 -2.123325 -2.097854
32.400000 -2.121058 -2.097939
32.450000 -2.118239 -2.098023
32.500000 -2.114953 -2.098105
32.550000 -2.111297 -2.098187
32.600000 -2.107375 -2.098267
32.650000 -2.103296 -2.098346
32.700000 -2.099170 -2.098424
32.750000 -2.095106 -2.098500
32.800000 -2.091212 -2.098576
32.850000 -2.087585 -2.098650
32.900000 -2.084316 -2.098724
32.950000 -2.081485 -2.098796
33.000000 -2.079158 -2.098867
33.050000 -2.077386 -2.098937
33.100000 -2.076208 -2.099006
33.150000 -2.075642 -2.099074
33.200000 -2.075694 -2.099141
33.250000 -2.076351 -2.099207
33.300000 -2.077586 -2.099272
33.350000 -2.079358 -2.099336
33.400000 -2.081611 -2.099399
33.450000 -2.084280 -2.099461
33.500000 -2.087289 -2.099523
33.550000 -2.090555 -2.099583
33.600000 -2.093989 -2.099642
33.650000 -2.097503 -2.099701
33.700000 -2.101004 -2.099759
33.750000 -2.104403 -2.099815
33.800000 -2.107617 -2.099871
33.850000 -2.110568 -2.099927
33.900000 -2.113185 -2.099981
33.950000 -2.115409 -2.100035
34.000000 -2.117192 -2.100087
34.050000 -2.118498 -2.100139
34.100000 -2.119304 -2.100190
34.150000 -2.119599 -2.100241
34.200000 -2.119389 -2.100291
34.250000 -2.118690 -2.100340
34.300000 -2.117530 -2.100388
34.350000 -2.115950 -2.100435
34.400000 -2.114001 -2.100482
34.450000 -2.111741 -2.100528
34.500000 -2.109236 -2.100574
34.550000 -2.106557 -2.100618
34.600000 -2.103778 -2.100663
34.650000 -2.100973 -2.100706
34.700000 -2.098218 -2.100749
34.750000 -2.095582 -2.100791
34.800000 -2.093134 -2.100833
34.850000 -2.090933 -2.100873
34.900000 -2.089033 -2.100914
34.950000 -2.087478 -2.100954
35.000000 -2.086303 -2.100993
35.050000 -2.085530 -2.101031
35.100000 -2.085174 -2.101069
35.150000 -2.085236 -2.101107
35.200000 -2.085707 -2.101144
35.250000 -2.086568 -2.101180
35.300000 -2.087790 -2.101216
35.350000 -2.089335 -2.101251
35.400000 -2.091158 -2.101286
35.450000 -2.093206 -2.101320
35.500000 -2.095424 -2.101354
35.550000 -2.097752 -2.101387
35.600000 -2.100127 -2.101420
35.650000 -2.102489 -2.101452
35.700000 -2.104778 -2.101484
35.750000 -2.106936 -2.101515
35.800000 -2.108911 -2.101546
35.850000 -2.110658 -2.101576
35.900000 -2.112135 -2.101606
35.950000 -2.113310 -2.101636
36.000000 -2.114161 -2.101665
36.050000 -2.114672 -2.101693
36.100000 -2.114838 -2.101721
36.150000 -2.114661 -2.101749
36.200000 -2.114154 -2.101777
36.250000 -2.113338 -2.101804
36.300000 -2.112239 -2.101830
36.350000 -2.110893 -2.101856
36.400000 -2.109341 -2.101882
36.450000 -2.107626 -2.101908
36.500000 -2.105798 -2.101933
36.550000 -2.103906 -2.101957
36.600000 -2.102002 -2.101982
36.650000 -2.100134 -2.102006
36.700000 -2.098353 -2.102029
36.750000 -2.096701 -2.102052
36.800000 -2.095221 -2.102075
36.850000 -2.093947 -2.102098
36.900000 -2.092910 -2.102120
36.950000 -2.092131 -2.102142
37.000000 -2.091626 -2.102164
37.050000 -2.091404 -2.102185
37.100000 -2.091465 -2.102206
37.150000 -2.091803 -2.102226
37.200000 -2.092404 -2.102247
37.250000 -2.093247 -2.102267
37.300000 -2.094307 -2.102286
37.350000 -2.095552 -2.102306
37.400000 -2.096947 -2.102325
37.450000 -2.098454 -2.102344
37.500000 -2.100032 -2.102362
37.550000 -2.101638 -2.102381
37.600000 -2.103232 -2.102399
37.650000 -2.104774 -2.102417
37.700000 -2.106223 -2.102434
37.750000 -2.107547 -2.102451
37.800000 -2.108712 -2.102468
37.850000 -2.109693 -2.102485
37.900000 -2.110468 -2.102502
37.950000 -2.111022 -2.102518
38.000000 -2.111346 -2.102534
38.050000 -2.111435 -2.102550
38.100000 -2.111293 -2.102565
38.150000 -2.110928 -2.102581
38.200000 -2.110355 -2.102596
38.250000 -2.109592 -2.102611
38.300000 -2.108664 -2.102625
38.350000 -2.107599 -2.102640
38.400000 -2.106426 -2.102654
38.450000 -2.105180 -2.102668
38.500000 -2.103893 -2.102682
38.550000 -2.102600 -2.102695
38.600000 -2.101336 -2.102709
38.650000 -2.100132 -2.102722
38.700000 -2.099019 -2.102735
38.750000 -2.098024 -2.102748
38.800000 -2.097171 -2.102760
38.850000 -2.096479 -2.102773
38.900000 -2.095964 -2.102785
38.950000 -2.095636 -2.102797
39.000000 -2.095499 -2.102809
39.050000 -2.095554 -2.102821
39.100000 -2.095796 -2.102832
39.150000 -2.096215 -2.102844
39.200000 -2.096797 -2.102855
39.250000 -2.097524 -2.102866
39.300000 -2.098375 -2.102877
39.350000 -2.099326 -2.102888
39.400000 -2.100350 -2.102898
39.450000 -2.101419 -2.102909
39.500000 -2.102506 -2.102919
39.550000 -2.103582 -2.102929
39.600000 -2.104620 -2.102939
39.650000 -2.105594 -2.102949
39.700000 -2.106481 -2.102959
39.750000 -2.107259 -2.102968
39.800000 -2.107910 -2.102977
39.850000 -2.108422 -2.102987
39.900000 -2.108782 -2.102996
39.950000 -2.108986 -2.103005
40.000000 -2.109032 -2.103014
40.050000 -2.108920 -2.103022
40.100000 -2.108659 -2.103031
40.150000 -2.108258 -2.103039
40.200000 -2.107729 -2.103048
40.250000 -2.107090 -2.103056
40.300000 -2.106360 -2.103064
40.350000 -2.105558 -2.103072
40.400000 -2.104709 -2.103080
40.450000 -2.103834 -2.103088
40.500000 -2.102957 -2.103095
40.550000 -2.102101 -2.103103
40.600000 -2.101288 -2.103110
40.650000 -2.100538 -2.103117
40.700000 -2.099870 -2.103125
40.750000 -2.099300 -2.103132
40.800000 -2.098839 -2.103139
40.850000 -2.098499 -2.103146
40.900000 -2.098286 -2.103152
40.950000 -2.098203 -2.103159
41.000000 -2.098250 -2.103166
41.050000 -2.098422 -2.103172
41.100000 -2.098715 -2.103179
41.150000 -2.099117 -2.103185
41.200000 -2.099616 -2.103191
41.250000 -2.100198 -2.103197
41.300000 -2.100845 -2.103203
41.350000 -2.101541 -2.103209
41.400000 -2.102267 -2.103215
41.450000 -2.103002 -2.103221
41.500000 -2.103729 -2.103226
41.550000 -2.104428 -2.103232
41.600000 -2.105082 -2.103237
41.650000 -2.105676 -2.103243
41.700000 -2.106196 -2.103248
41.750000 -2.106628 -2.103253
41.800000 -2.106965 -2.103259
41.850000 -2.107200 -2.103264
41.900000 -2.107328 -2.103269
41.950000 -2.107349 -2.103274
42.000000 -2.107264 -2.103279
42.050000 -2.107078 -2.103283
42.100000 -2.106797 -2.103288
42.150000 -2.106431 -2.103293
42.200000 -2.105991 -2.103297
42.250000 -2.105491 -2.103302
42.300000 -2.104944 -2.103306
42.350000 -2.104365 -2.103311
42.400000 -2.103770 -2.103315
42.450000 -2.103176 -2.103320
42.500000 -2.102597 -2.103324
42.550000 -2.102048 -2.103328
42.600000 -2.101544 -2.103332
42.650000 -2.101095 -2.103336
42.700000 -2.100714 -2.103340
42.750000 -2.100407 -2.103344
42.800000 -2.100183 -2.103348
42.850000 -2.100045 -2.103352
42.900000 -2.099996 -2.103355
42.950000 -2.100034 -2.103359
43.000000 -2.100157 -2.103363
43.050000 -2.100361 -2.103366
43.100000 -2.100639 -2.103370
43.150000 -2.100981 -2.103373
43.200000 -2.101379 -2.103377
43.250000 -2.101820 -2.103380
43.300000 -2.102294 -2.103383
43.350000 -2.102785 -2.103387
43.400000 -2.103283 -2.103390
43.450000 -2.103774 -2.103393
43.500000 -2.104245 -2.103396
43.550000 -2.104685 -2.103399
43.600000 -2.105083 -2.103402
43.650000 -2.105429 -2.103405
43.700000 -2.105717 -2.103408
43.750000 -2.105939 -2.103411
43.800000 -2.106091 -2.103414
43.850000 -2.106171 -2.103417
43.900000 -2.106179 -2.103420
43.950000 -2.106115 -2.103422
44.000000 -2.105982 -2.103425
44.050000 -2.105786 -2.103428
44.100000 -2.105533 -2.103430
44.150000 -2.105231 -2.103433
44.200000 -2.104888 -2.103436
44.250000 -2.104515 -2.103438
44.300000 -2.104121 -2.103441
44.350000 -2.103717 -2.103443
44.400000 -2.103314 -2.103445
44.450000 -2.102923 -2.103448
44.500000 -2.102553 -2.103450
44.550000 -2.102213 -2.103452
44.600000 -2.101912 -2.103455
44.650000 -2.101658 -2.103457
44.700000 -2.101454 -2.103459
44.750000 -2.101307 -2.103461
44.800000 -2.101218 -2.103463
44.850000 -2.101189 -2.103466
44.900000 -2.101219 -2.103468
44.950000 -2.101307 -2.103470
45.000000 -2.101449 -2.103472
45.050000 -2.101641 -2.103474
45.100000 -2.101876 -2.103476
45.150000 -2.102148 -2.103477
45.200000 -2.102449 -2.103479
45.250000 -2.102770 -2.103481
45.300000 -2.103104 -2.103483
45.350000 -2.103441 -2.103485
45.400000 -2.103772 -2.103487
45.450000 -2.104089 -2.103488
45.500000 -2.104385 -2.103490
45.550000 -2.104652 -2.103492
45.600000 -2.104883 -2.103494
45.650000 -2.105074 -2.103495
45.700000 -2.105220 -2.103497
45.750000 -2.105319 -2.103499
45.800000 -2.105369 -2.103500
45.850000 -2.105369 -2.103502
45.900000 -2.105322 -2.103503
45.950000 -2.105228 -2.103505
46.000000 -2.105091 -2.103506
46.050000 -2.104917 -2.103508
46.100000 -2.104709 -2.103509
46.150000 -2.104474 -2.103511
46.200000 -2.104220 -2.103512
46.250000 -2.103952 -2.103513
46.300000 -2.103677 -2.103515
46.350000 -2.103405 -2.103516
46.400000 -2.103140 -2.103517
46.450000 -2.102890 -2.103519
46.500000 -2.102662 -2.103520
46.550000 -2.102460 -2.103521
46.600000 -2.102290 -2.103523
46.650000 -2.102155 -2.103524
46.700000 -2.102058 -2.103525
46.750000 -2.102001 -2.103526
46.800000 -2.101985 -2.103527
46.850000 -2.102008 -2.103529
46.900000 -2.102071 -2.103530
46.950000 -2.102170 -2.103531
47.000000 -2.102302 -2.103532
47.050000 -2.102463 -2.103533
47.100000 -2.102649 -2.103534
47.150000 -2.102854 -2.103535
47.200000 -2.103073 -2.103536
47.250000 -2.103299 -2.103537
47.300000 -2.103527 -2.103538
47.350000 -2.103751 -2.103539
47.400000 -2.103965 -2.103540
47.450000 -2.104163 -2.103541
47.500000 -2.104342 -2.103542
47.550000 -2.104496 -2.103543
47.600000 -2.104623 -2.103544
47.650000 -2.104720 -2.103545
47.700000 -2.104784 -2.103546
47.750000 -2.104814 -2.103547
47.800000 -2.104812 -2.103548
47.850000 -2.104777 -2.103549
47.900000 -2.104710 -2.103549
47.950000 -2.104615 -2.103550
48.000000 -2.104495 -2.103551
48.050000 -2.104352 -2.103552
48.100000 -2.104192 -2.103553
48.150000 -2.104018 -2.103554
48.200000 -2.103836 -2.103554
48.250000 -2.103650 -2.103555
48.300000 -2.103465 -2.103556
48.350000 -2.103286 -2.103557
48.400000 -2.103118 -2.103557
48.450000 -2.102964 -2.103558
48.500000 -2.102829 -2.103559
48.550000 -2.102716 -2.103560
48.600000 -2.102626 -2.103560
48.650000 -2.102563 -2.103561
48.700000 -2.102526 -2.103562
48.750000 -2.102517 -2.103562
48.800000 -2.102535 -2.103563
48.850000 -2.102580 -2.103564
48.900000 -2.102649 -2.103564
48.950000 -2.102740 -2.103565
49.000000 -2.102851 -2.103565
49.050000 -2.102978 -2.103566
49.100000 -2.103117 -2.103567
49.150000 -2.103266 -2.103567
49.200000 -2.103419 -2.103568
49.250000 -2.103574 -2.103568
49.300000 -2.103725 -2.103569
49.350000 -2.103869 -2.103569
49.400000 -2.104002 -2.103570
49.450000 -2.104122 -2.103571
49.500000 -2.104225 -2.103571
49.550000 -2.104309 -2.103572
49.600000 -2.104372 -2.103572
49.650000 -2.104414 -2.103573
49.700000 -2.104433 -2.103573
49.750000 -2.104429 -2.103574
49.800000 -2.104403 -2.103574
49.850000 -2.104357 -2.103575
49.900000 -2.104291 -2.103575
49.950000 -2.104207 -2.103576
50.000000 -2.104110 -2.103576
50.050000 -2.104000 -2.103576
50.100000 -2.103881 -2.103577
50.150000 -2.103757 -2.103577
50.200000 -2.103631 -2.103578
50.250000 -2.103506 -2.103578
50.300000 -2.103385 -2.103579
50.350000 -2.103272 -2.103579
50.400000 -2.103169 -2.103579
50.450000 -2.103078 -2.103580
50.500000 -2.103003 -2.103580
50.550000 -2.102943 -2.103581
50.600000 -2.102902 -2.103581
50.650000 -2.102878 -2.103581
50.700000 -2.102874 -2.103582
50.750000 -2.102888 -2.103582
50.800000 -2.102919 -2.103583
50.850000 -2.102967 -2.103583
50.900000 -2.103030 -2.103583
50.950000 -2.103106 -2.103584
51.000000 -2.103193 -2.103584
51.050000 -2.103288 -2.103584
51.100000 -2.103389 -2.103585
51.150000 -2.103493 -2.103585
51.200000 -2.103598 -2.103585
51.250000 -2.103700 -2.103586
51.300000 -2.103797 -2.103586
51.350000 -2.103886 -2.103586
51.400000 -2.103966 -2.103587
51.450000 -2.104035 -2.103587
51.500000 -2.104091 -2.103587
51.550000 -2.104133 -2.103587
51.600000 -2.104159 -2.103588
51.650000 -2.104171 -2.103588
51.700000 -2.104167 -2.103588
51.750000 -2.104148 -2.103589
51.800000 -2.104115 -2.103589
51.850000 -2.104070 -2.103589
51.900000 -2.104012 -2.103589
51.950000 -2.103945 -2.103590
52.000000 -2.103870 -2.103590
52.050000 -2.103789 -2.103590
52.100000 -2.103705 -2.103590
52.150000 -2.103620 -2.103591
52.200000 -2.103535 -2.103591
52.250000 -2.103453 -2.103591
52.300000 -2.103377 -2.103591
52.350000 -2.103308 -2.103592
52.400000 -2.103247 -2.103592
52.450000 -2.103197 -2.103592
52.500000 -2.103158 -2.103592
52.550000 -2.103130 -2.103592
52.600000 -2.103116 -2.103593
52.650000 -2.103113 -2.103593
52.700000 -2.103124 -2.103593
52.750000 -2.103146 -2.103593
52.800000 -2.103179 -2.103593
52.850000 -2.103223 -2.103594
52.900000 -2.103275 -2.103594
52.950000 -2.103334 -2.103594
53.000000 -2.103399 -2.103594
53.050000 -2.103468 -2.103594
53.100000 -2.103538 -2.103595
53.150000 -2.103609 -2.103595
53.200000 -2.103678 -2.103595
53.250000 -2.103743 -2.103595
53.300000 -2.103803 -2.103595
53.350000 -2.103857 -2.103596
53.400000 -2.103903 -2.103596
53.450000 -2.103940 -2.103596
53.500000 -2.103967 -2.103596
53.550000 -2.103985 -2.103596
53.600000 -2.103991 -2.103596
53.650000 -2.103988 -2.103596
53.700000 -2.103974 -2.103597
53.750000 -2.103951 -2.103597
53.800000 -2.103920 -2.103597
53.850000 -2.103880 -2.103597
53.900000 -2.103834 -2.103597
53.950000 -2.103783 -2.103597
54.000000 -2.103728 -2.103598
54.050000 -2.103671 -2.103598
54.100000 -2.103613 -2.103598
54.150000 -2.103555 -2.103598
54.200000 -2.103500 -2.103598
54.250000 -2.103449 -2.103598
54.300000 -2.103402 -2.103598
54.350000 -2.103362 -2.103598
54.400000 -2.103328 -2.103599
54.450000 -2.103302 -2.103599
54.500000 -2.103284 -2.103599
54.550000 -2.103275 -2.103599
54.600000 -2.103274 -2.103599
54.650000 -2.103282 -2.103599
54.700000 -2.103298 -2.103599
54.750000 -2.103321 -2.103599
54.800000 -2.103351 -2.103600
54.850000 -2.103387 -2.103600
54.900000 -2.103427 -2.103600
54.950000 -2.103471 -2.103600
55.000000 -2.103518 -2.103600
55.050000 -2.103566 -2.103600
55.100000 -2.103614 -2.103600
55.150000 -2.103660 -2.103600
55.200000 -2.103704 -2.103600
55.250000 -2.103745 -2.103600
55.300000 -2.103781 -2.103601
55.350000 -2.103811 -2.103601
55.400000 -2.103836 -2.103601
55.450000 -2.103854 -2.103601
55.500000 -2.103865 -2.103601
55.550000 -2.103869 -2.103601
55.600000 -2.103866 -2.103601
55.650000 -2.103856 -2.103601
55.700000 -2.103840 -2.103601
55.750000 -2.103818 -2.103601
55.800000 -2.103791 -2.103601
55.850000 -2.103759 -2.103602
55.900000 -2.103724 -2.103602
55.950000 -2.103687 -2.103602
56.000000 -2.103648 -2.103602
56.050000 -2.103609 -2.103602
56.100000 -2.103570 -2.103602
56.150000 -2.103533 -2.103602
56.200000 -2.103498 -2.103602
56.250000 -2.103467 -2.103602
56.300000 -2.103440 -2.103602
56.350000 -2.103417 -2.103602
56.400000 -2.103400 -2.103602
56.450000 -2.103389 -2.103602
56.500000 -2.103383 -2.103603
56.550000 -2.103383 -2.103603
56.600000 -2.103388 -2.103603
56.650000 -2.103400 -2.103603
56.700000 -2.103416 -2.103603
56.750000 -2.103436 -2.103603
56.800000 -2.103461 -2.103603
56.850000 -2.103488 -2.103603
56.900000 -2.103519 -2.103603
56.950000 -2.103550 -2.103603
57.000000 -2.103583 -2.103603
57.050000 -2.103615 -2.103603
57.100000 -2.103646 -2.103603
57.150000 -2.103676 -2.103603
57.200000 -2.103703 -2.103603
57.250000 -2.103727 -2.103603
57.300000 -2.103748 -2.103603
57.350000 -2.103764 -2.103604
57.400000 -2.103776 -2.103604
57.450000 -2.103783 -2.103604
57.500000 -2.103785 -2.103604
57.550000 -2.103783 -2.103604
57.600000 -2.103776 -2.103604
57.650000 -2.103764 -2.103604
57.700000 -2.103749 -2.103604
57.750000 -2.103731 -2.103604
57.800000 -2.103709 -2.103604
57.850000 -2.103685 -2.103604
57.900000 -2.103660 -2.103604
57.950000 -2.103633 -2.103604
58.000000 -2.103606 -2.103604
58.050000 -2.103580 -2.103604
58.100000 -2.103555 -2.103604
58.150000 -2.103532 -2.103604
58.200000 -2.103511 -2.103604
58.250000 -2.103493 -2.103604
58.300000 -2.103478 -2.103604
58.350000 -2.103467 -2.103604
58.400000 -2.103459 -2.103604
58.450000 -2.103456 -2.103605
58.500000 -2.103456 -2.103605
58.550000 -2.103460 -2.103605
58.600000 -2.103468 -2.103605
58.650000 -2.103479 -2.103605
58.700000 -2.103493 -2.103605
58.750000 -2.103510 -2.103605
58.800000 -2.103529 -2.103605
58.850000 -2.103549 -2.103605
58.900000 -2.103571 -2.103605
58.950000 -2.103593 -2.103605
59.000000 -2.103615 -2.103605
59.050000 -2.103636 -2.103605
59.100000 -2.103656 -2.103605
59.150000 -2.103674 -2.103605
59.200000 -2.103690 -2.103605
59.250000 -2.103704 -2.103605
59.300000 -2.103715 -2.103605
59.350000 -2.103722 -2.103605
59.400000 -2.103727 -2.103605
59.450000 -2.103728 -2.103605
59.500000 -2.103726 -2.103605
59.550000 -2.103721 -2.103605
59.600000 -2.103713 -2.103605
59.650000 -2.103703 -2.103605
59.700000 -2.103690 -2.103605
59.750000 -2.103675 -2.103605
59.800000 -2.103659 -2.103605
59.850000 -2.103642 -2.103605
59.900000 -2.103624 -2.103605
59.950000 -2.103606 -2.103605
60.000000 -2.103588 -2.103605
60.050000 -2.103571 -2.103605
60.100000 -2.103555 -2.103606
60.150000 -2.103541 -2.103606
60.200000 -2.103529 -2.103606
60.250000 -2.103519 -2.103606
60.300000 -2.103512 -2.103606
60.350000 -2.103507 -2.103606
60.400000 -2.103505 -2.103606
60.450000 -2.103505 -2.103606
60.500000 -2.103508 -2.103606
60.550000 -2.103513 -2.103606
60.600000 -2.103521 -2.103606
60.650000 -2.103531 -2.103606
60.700000 -2.103543 -2.103606
60.750000 -2.103555 -2.103606
60.800000 -2.103569 -2.103606
60.850000 -2.103584 -2.103606
60.900000 -2.103599 -2.103606
60.950000 -2.103614 -2.103606
61.000000 -2.103628 -2.103606
61.050000 -2.103642 -2.103606
61.100000 -2.103654 -2.103606
61.150000 -2.103665 -2.103606
61.200000 -2.103674 -2.103606
61.250000 -2.103681 -2.103606
61.300000 -2.103686 -2.103606
61.350000 -2.103689 -2.103606
61.400000 -2.103689 -2.103606
61.450000 -2.103688 -2.103606
61.500000 -2.103684 -2.103606
61.550000 -2.103679 -2.103606
61.600000 -2.103671 -2.103606
61.650000 -2.103663 -2.103606
61.700000 -2.103653 -2.103606
61.750000 -2.103641 -2.103606
61.800000 -2.103630 -2.103606
61.850000 -2.103617 -2.103606
61.900000 -2.103605 -2.103606
61.950000 -2.103593 -2.103606
62.000000 -2.103582 -2.103606
62.050000 -2.103571 -2.103606
62.100000 -2.103562 -2.103606
62.150000 -2.103554 -2.103606
62.200000 -2.103547 -2.103606
62.250000 -2.103542 -2.103606
62.300000 -2.103539 -2.103606
62.350000 -2.103538 -2.103606
62.400000 -2.103538 -2.103606
62.450000 -2.103540 -2.103606
62.500000 -2.103544 -2.103606
62.550000 -2.103550 -2.103606
62.600000 -2.103556 -2.103606
62.650000 -2.103564 -2.103606
62.700000 -2.103573 -2.103606
62.750000 -2.103583 -2.103606
62.800000 -2.103593 -2.103606
62.850000 -2.103603 -2.103606
62.900000 -2.103613 -2.103606
62.950000 -2.103622 -2.103606
63.000000 -2.103631 -2.103606
63.050000 -2.103640 -2.103606
63.100000 -2.103647 -2.103606
63.150000 -2.103653 -2.103606
63.200000 -2.103657 -2.103606
63.250000 -2.103661 -2.103606
63.300000 -2.103663 -2.103606
63.350000 -2.103663 -2.103607
63.400000 -2.103662 -2.103607
63.450000 -2.103659 -2.103607
63.500000 -2.103655 -2.103607
63.550000 -2.103650 -2.103607
63.600000 -2.103644 -2.103607
63.650000 -2.103637 -2.103607
63.700000 -2.103630 -2.103607
63.750000 -2.103622 -2.103607
63.800000 -2.103614 -2.103607
63.850000 -2.103605 -2.103607
63.900000 -2.103597 -2.103607
63.950000 -2.103589 -2.103607
64.000000 -2.103582 -2.103607
64.050000 -2.103576 -2.103607
64.100000 -2.103571 -2.103607
64.150000 -2.103566 -2.103607
64.200000 -2.103563 -2.103607
64.250000 -2.103561 -2.103607
64.300000 -2.103560 -2.103607
64.350000 -2.103561 -2.103607
64.400000 -2.103562 -2.103607
64.450000 -2.103565 -2.103607
64.500000 -2.103569 -2.103607
64.550000 -2.103573 -2.103607
64.600000 -2.103579 -2.103607
64.650000 -2.103585 -2.103607
64.700000 -2.103591 -2.103607
64.750000 -2.103598 -2.103607
64.800000 -2.103605 -2.103607
64.850000 -2.103611 -2.103607
64.900000 -2.103618 -2.103607
64.950000 -2.103624 -2.103607
65.000000 -2.103630 -2.103607
65.050000 -2.103634 -2.103607
65.100000 -2.103638 -2.103607
65.150000 -2.103642 -2.103607
65.200000 -2.103644 -2.103607
65.250000 -2.103645 -2.103607
65.300000 -2.103645 -2.103607
65.350000 -2.103644 -2.103607
65.400000 -2.103642 -2.103607
65.450000 -2.103640 -2.103607
65.500000 -2.103636 -2.103607
65.550000 -2.103632 -2.103607
65.600000 -2.103627 -2.103607
65.650000 -2.103622 -2.103607
65.700000 -2.103617 -2.103607
65.750000 -2.103611 -2.103607
65.800000 -2.103605 -2.103607
65.850000 -2.103600 -2.103607
65.900000 -2.103595 -2.103607
65.950000 -2.103590 -2.103607
66.000000 -2.103586 -2.103607
66.050000 -2.103582 -2.103607
66.100000 -2.103579 -2.103607
66.150000 -2.103577 -2.103607
66.200000 -2.103576 -2.103607
66.250000 -2.103575 -2.103607
66.300000 -2.103576 -2.103607
66.350000 -2.103577 -2.103607
66.400000 -2.103579 -2.103607
66.450000 -2.103581 -2.103607
66.500000 -2.103584 -2.103607
66.550000 -2.103588 -2.103607
66.600000 -2.103592 -2.103607
66.650000 -2.103597 -2.103607
66.700000 -2.103601 -2.103607
66.750000 -2.103606 -2.103607
66.800000 -2.103611 -2.103607
66.850000 -2.103615 -2.103607
66.900000 -2.103619 -2.103607
66.950000 -2.103623 -2.103607
67.000000 -2.103626 -2.103607
67.050000 -2.103629 -2.103607
67.100000 -2.103631 -2.103607
67.150000 -2.103632 -2.103607
67.200000 -2.103633 -2.103607
67.250000 -2.103633 -2.103607
67.300000 -2.103632 -2.103607
67.350000 -2.103631 -2.103607
67.400000 -2.103629 -2.103607
67.450000 -2.103627 -2.103607
67.500000 -2.103624 -2.103607
67.550000 -2.103621 -2.103607
67.600000 -2.103617 -2.103607
67.650000 -2.103613 -2.103607
67.700000 -2.103609 -2.103607
67.750000 -2.103606 -2.103607
67.800000 -2.103602 -2.103607
67.850000 -2.103599 -2.103607
67.900000 -2.103595 -2.103607
67.950000 -2.103592 -2.103607
68.000000 -2.103590 -2.103607
68.050000 -2.103588 -2.103607
68.100000 -2.103587 -2.103607
68.150000 -2.103586 -2.103607
68.200000 -2.103586 -2.103607
68.250000 -2.103586 -2.103607
68.300000 -2.103587 -2.103607
68.350000 -2.103588 -2.103607
68.400000 -2.103590 -2.103607
68.450000 -2.103592 -2.103607
68.500000 -2.103595 -2.103607
68.550000 -2.103597 -2.103607
68.600000 -2.103600 -2.103607
68.650000 -2.103603 -2.103607
68.700000 -2.103607 -2.103607
68.750000 -2.103610 -2.103607
68.800000 -2.103613 -2.103607
68.850000 -2.103615 -2.103607
68.900000 -2.103618 -2.103607
68.950000 -2.103620 -2.103607
69.000000 -2.103622 -2.103607
69.050000 -2.103623 -2.103607
69.100000 -2.103624 -2.103607
69.150000 -2.103625 -2.103607
69.200000 -2.103625 -2.103607
69.250000 -2.103624 -2.103607
69.300000 -2.103623 -2.103607
69.350000 -2.103622 -2.103607
69.400000 -2.103620 -2.103607
69.450000 -2.103618 -2.103607
69.500000 -2.103616 -2.103607
69.550000 -2.103614 -2.103607
69.600000 -2.103611 -2.103607
69.650000 -2.103609 -2.103607
69.700000 -2.103606 -2.103607
69.750000 -2.103603 -2.103607
69.800000 -2.103601 -2.103607
69.850000 -2.103599 -2.103607
69.900000 -2.103597 -2.103607
69.950000 -2.103595 -2.103607
70.000000 -2.103594 -2.103607
70.050000 -2.103593 -2.103607
70.100000 -2.103593 -2.103607
70.150000 -2.103593 -2.103607
70.200000 -2.103593 -2.103607
70.250000 -2.103593 -2.103607
70.300000 -2.103594 -2.103607
70.350000 -2.103596 -2.103607
70.400000 -2.103597 -2.103607
70.450000 -2.103599 -2.103607
70.500000 -2.103601 -2.103607
70.550000 -2.103603 -2.103607
70.600000 -2.103605 -2.103607
70.650000 -2.103607 -2.103607
70.700000 -2.103609 -2.103607
70.750000 -2.103611 -2.103607
70.800000 -2.103613 -2.103607
70.850000 -2.103615 -2.103607
70.900000 -2.103616 -2.103607
70.950000 -2.103617 -2.103607
71.000000 -2.103618 -2.103607
71.050000 -2.103619 -2.103607
71.100000 -2.103619 -2.103607
71.150000 -2.103619 -2.103607
71.200000 -2.103619 -2.103607
71.250000 -2.103618 -2.103607
71.300000 -2.103617 -2.103607
71.350000 -2.103616 -2.103607
71.400000 -2.103615 -2.103607
71.450000 -2.103613 -2.103607
71.500000 -2.103611 -2.103607
71.550000 -2.103610 -2.103607
71.600000 -2.103608 -2.103607
71.650000 -2.103606 -2.103607
71.700000 -2.103605 -2.103607
71.750000 -2.103603 -2.103607
71.800000 -2.103601 -2.103607
71.850000 -2.103600 -2.103607
71.900000 -2.103599 -2.103607
71.950000 -2.103598 -2.103607
72.000000 -2.103598 -2.103607
72.050000 -2.103597 -2.103607
72.100000 -2.103597 -2.103607
72.150000 -2.103597 -2.103607
72.200000 -2.103598 -2.103607
72.250000 -2.103599 -2.103607
72.300000 -2.103599 -2.103607
72.350000 -2.103600 -2.103607
72.400000 -2.103602 -2.103607
72.450000 -2.103603 -2.103607
72.500000 -2.103604 -2.103607
72.550000 -2.103606 -2.103607
72.600000 -2.103607 -2.103607
72.650000 -2.103609 -2.103607
72.700000 -2.103610 -2.103607
72.750000 -2.103611 -2.103607
72.800000 -2.103612 -2.103607
72.850000 -2.103613 -2.103607
72.900000 -2.103614 -2.103607
72.950000 -2.103615 -2.103607
73.000000 -2.103615 -2.103607
73.050000 -2.103615 -2.103607
73.100000 -2.103615 -2.103607
73.150000 -2.103615 -2.103607
73.200000 -2.103614 -2.103607
73.250000 -2.103614 -2.103607
73.300000 -2.103613 -2.103607
73.350000 -2.103612 -2.103607
73.400000 -2.103611 -2.103607
73.450000 -2.103610 -2.103607
73.500000 -2.103609 -2.103607
73.550000 -2.103608 -2.103607
73.600000 -2.103606 -2.103607
73.650000 -2.103605 -2.103607
73.700000 -2.103604 -2.103607
73.750000 -2.103603 -2.103607
73.800000 -2.103602 -2.103607
73.850000 -2.103602 -2.103607
73.900000 -2.103601 -2.103607
73.950000 -2.103601 -2.103607
74.000000 -2.103601 -2.103607
74.050000 -2.103600 -2.103607
74.100000 -2.103601 -2.103607
74.150000 -2.103601 -2.103607
74.200000 -2.103601 -2.103607
74.250000 -2.103602 -2.103607
74.300000 -2.103603 -2.103607
74.350000 -2.103603 -2.103607
74.400000 -2.103604 -2.103607
74.450000 -2.103605 -2.103607
74.500000 -2.103606 -2.103607
74.550000 -2.103607 -2.103607
74.600000 -2.103608 -2.103607
74.650000 -2.103609 -2.103607
74.700000 -2.103610 -2.103607
74.750000 -2.103611 -2.103607
74.800000 -2.103611 -2.103607
74.850000 -2.103612 -2.103607
74.900000 -2.103612 -2.103607
74.950000 -2.103612 -2.103607
75.000000 -2.103613 -2.103607
75.050000 -2.103613 -2.103607
75.100000 -2.103612 -2.103607
75.150000 -2.103612 -2.103607
75.200000 -2.103612 -2.103607
75.250000 -2.103611 -2.103607
75.300000 -2.103610 -2.103607
75.350000 -2.103610 -2.103607
75.400000 -2.103609 -2.103607
75.450000 -2.103608 -2.103607
75.500000 -2.103607 -2.103607
75.550000 -2.103607 -2.103607
75.600000 -2.103606 -2.103607
75.650000 -2.103605 -2.103607
75.700000 -2.103604 -2.103607
75.750000 -2.103604 -2.103607
75.800000 -2.103603 -2.103607
75.850000 -2.103603 -2.103607
75.900000 -2.103603 -2.103607
75.950000 -2.103603 -2.103607
76.000000 -2.103603 -2.103607
76.050000 -2.103603 -2.103607
76.100000 -2.103603 -2.103607
76.150000 -2.103603 -2.103607
76.200000 -2.103604 -2.103607
76.250000 -2.103604 -2.103607
76.300000 -2.103605 -2.103607
76.350000 -2.103605 -2.103607
76.400000 -2.103606 -2.103607
76.450000 -2.103607 -2.103607
76.500000 -2.103607 -2.103607
76.550000 -2.103608 -2.103607
76.600000 -2.103609 -2.103607
76.650000 -2.103609 -2.103607
76.700000 -2.103610 -2.103607
76.750000 -2.103610 -2.103607
76.800000 -2.103610 -2.103607
76.850000 -2.103611 -2.103607
76.900000 -2.103611 -2.103607
76.950000 -2.103611 -2.103607
77.000000 -2.103611 -2.103607
77.050000 -2.103611 -2.103607
77.100000 -2.103610 -2.103607
77.150000 -2.103610 -2.103607
77.200000 -2.103610 -2.103607
77.250000 -2.103609 -2.103607
77.300000 -2.103609 -2.103607
77.350000 -2.103608 -2.103607
77.400000 -2.103608 -2.103607
77.450000 -2.103607 -2.103607
77.500000 -2.103607 -2.103607
77.550000 -2.103606 -2.103607
77.600000 -2.103606 -2.103607
77.650000 -2.103605 -2.103607
77.700000 -2.103605 -2.103607
77.750000 -2.103605 -2.103607
77.800000 -2.103604 -2.103607
77.850000 -2.103604 -2.103607
77.900000 -2.103604 -2.103607
77.950000 -2.103604 -2.103607
78.000000 -2.103604 -2.103607
78.050000 -2.103604 -2.103607
78.100000 -2.103605 -2.103607
78.150000 -2.103605 -2.103607
78.200000 -2.103605 -2.103607
78.250000 -2.103606 -2.103607
78.300000 -2.103606 -2.103607
78.350000 -2.103606 -2.103607
78.400000 -2.103607 -2.103607
78.450000 -2.103607 -2.103607
78.500000 -2.103608 -2.103607
78.550000 -2.103608 -2.103607
78.600000 -2.103608 -2.103607
78.650000 -2.103609 -2.103607
78.700000 -2.103609 -2.103607
78.750000 -2.103609 -2.103607
78.800000 -2.103609 -2.103607
78.850000 -2.103610 -2.103607
78.900000 -2.103610 -2.103607
78.950000 -2.103610 -2.103607
79.000000 -2.103610 -2.103607
79.050000 -2.103609 -2.103607
79.100000 -2.103609 -2.103607
79.150000 -2.103609 -2.103607
79.200000 -2.103609 -2.103607
79.250000 -2.103608 -2.103607
79.300000 -2.103608 -2.103607
79.350000 -2.103608 -2.103607
79.400000 -2.103607 -2.103607
79.450000 -2.103607 -2.103607
79.500000 -2.103606 -2.103607
79.550000 -2.103606 -2.103607
79.600000 -2.103606 -2.103607
79.650000 -2.103606 -2.103607
79.700000 -2.103605 -2.103607
79.750000 -2.103605 -2.103607
79.800000 -2.103605 -2.103607
79.850000 -2.103605 -2.103607
79.900000 -2.103605 -2.103607
79.950000 -2.103605 -2.103607
80.000000 -2.103605 -2.103607
80.050000 -2.103605 -2.103607
80.100000 -2.103606 -2.103607
80.150000 -2.103606 -2.103607
80.200000 -2.103606 -2.103607
80.250000 -2.103606 -2.103607
80.300000 -2.103607 -2.103607
80.350000 -2.103607 -2.103607
80.400000 -2.103607 -2.103607
80.450000 -2.103608 -2.103607
80.500000 -2.103608 -2.103607
80.550000 -2.103608 -2.103607
80.600000 -2.103608 -2.103607
80.650000 -2.103608 -2.103607
80.700000 -2.103609 -2.103607
80.750000 -2.103609 -2.103607
80.800000 -2.103609 -2.103607
80.850000 -2.103609 -2.103607
80.900000 -2.103609 -2.103607
80.950000 -2.103609 -2.103607
81.000000 -2.103609 -2.103607
81.050000 -2.103608 -2.103607
81.100000 -2.103608 -2.103607
81.150000 -2.103608 -2.103607
81.200000 -2.103608 -2.103607
81.250000 -2.103608 -2.103607
81.300000 -2.103607 -2.103607
81.350000 -2.103607 -2.103607
81.400000 -2.103607 -2.103607
81.450000 -2.103607 -2.103607
81.500000 -2.103606 -2.103607
81.550000 -2.103606 -2.103607
81.600000 -2.103606 -2.103607
81.650000 -2.103606 -2.103607
81.700000 -2.103606 -2.103607
81.750000 -2.103606 -2.103607
81.800000 -2.103606 -2.103607
81.850000 -2.103606 -2.103607
81.900000 -2.103606 -2.103607
81.950000 -2.103606 -2.103607
82.000000 -2.103606 -2.103607
82.050000 -2.103606 -2.103607
82.100000 -2.103606 -2.103607
82.150000 -2.103606 -2.103607
82.200000 -2.103607 -2.103607
82.250000 -2.103607 -2.103607
82.300000 -2.103607 -2.103607
82.350000 -2.103607 -2.103607
82.400000 -2.103607 -2.103607
82.450000 -2.103608 -2.103607
82.500000 -2.103608 -2.103607
82.550000 -2.103608 -2.103607
82.600000 -2.103608 -2.103607
82.650000 -2.103608 -2.103607
82.700000 -2.103608 -2.103607
82.750000 -2.103608 -2.103607
82.800000 -2.103608 -2.103607
82.850000 -2.103608 -2.103607
82.900000 -2.103608 -2.103607
82.950000 -2.103608 -2.103607
83.000000 -2.103608 -2.103607
83.050000 -2.103608 -2.103607
83.100000 -2.103608 -2.103607
83.150000 -2.103608 -2.103607
83.200000 -2.103607 -2.103607
83.250000 -2.103607 -2.103607
83.300000 -2.103607 -2.103607
83.350000 -2.103607 -2.103607
83.400000 -2.103607 -2.103607
83.450000 -2.103607 -2.103607
83.500000 -2.103607 -2.103607
83.550000 -2.103606 -2.103607
83.600000 -2.103606 -2.103607
83.650000 -2.103606 -2.103607
83.700000 -2.103606 -2.103607
83.750000 -2.103606 -2.103607
83.800000 -2.103606 -2.103607
83.850000 -2.103606 -2.103607
83.900000 -2.103606 -2.103607
83.950000 -2.103606 -2.103607
84.000000 -2.103606 -2.103607
84.050000 -2.103607 -2.103607
84.100000 -2.103607 -2.103607
84.150000 -2.103607 -2.103607
84.200000 -2.103607 -2.103607
84.250000 -2.103607 -2.103607
84.300000 -2.103607 -2.103607
84.350000 -2.103607 -2.103607
84.400000 -2.103607 -2.103607
84.450000 -2.103608 -2.103607
84.500000 -2.103608 -2.103607
84.550000 -2.103608 -2.103607
84.600000 -2.103608 -2.103607
84.650000 -2.103608 -2.103607
84.700000 -2.103608 -2.103607
84.750000 -2.103608 -2.103607
84.800000 -2.103608 -2.103607
84.850000 -2.103608 -2.103607
84.900000 -2.103608 -2.103607
84.950000 -2.103608 -2.103607
85.000000 -2.103608 -2.103607
85.050000 -2.103608 -2.103607
85.100000 -2.103607 -2.103607
85.150000 -2.103607 -2.103607
85.200000 -2.103607 -2.103607
85.250000 -2.103607 -2.103607
85.300000 -2.103607 -2.103607
85.350000 -2.103607 -2.103607
85.400000 -2.103607 -2.103607
85.450000 -2.103607 -2.103607
85.500000 -2.103607 -2.103607
85.550000 -2.103607 -2.103607
85.600000 -2.103607 -2.103607
85.650000 -2.103606 -2.103607
85.700000 -2.103606 -2.103607
85.750000 -2.103606 -2.103607
85.800000 -2.103607 -2.103607
85.850000 -2.103607 -2.103607
85.900000 -2.103607 -2.103607
85.950000 -2.103607 -2.103607
86.000000 -2.103607 -2.103607
86.050000 -2.103607 -2.103607
86.100000 -2.103607 -2.103607
86.150000 -2.103607 -2.103607
86.200000 -2.103607 -2.103607
86.250000 -2.103607 -2.103607
86.300000 -2.103607 -2.103607
86.350000 -2.103607 -2.103607
86.400000 -2.103607 -2.103607
86.450000 -2.103608 -2.103607
86.500000 -2.103608 -2.103607
86.550000 -2.103608 -2.103607
86.600000 -2.103608 -2.103607
86.650000 -2.103608 -2.103607
86.700000 -2.103608 -2.103607
86.750000 -2.103608 -2.103607
86.800000 -2.103608 -2.103607
86.850000 -2.103608 -2.103607
86.900000 -2.103608 -2.103607
86.950000 -2.103607 -2.103607
87.000000 -2.103607 -2.103607
87.050000 -2.103607 -2.103607
87.100000 -2.103607 -2.103607
87.150000 -2.103607 -2.103607
87.200000 -2.103607 -2.103607
87.250000 -2.103607 -2.103607
87.300000 -2.103607 -2.103607
87.350000 -2.103607 -2.103607
87.400000 -2.103607 -2.103607
87.450000 -2.103607 -2.103607
87.500000 -2.103607 -2.103607
87.550000 -2.103607 -2.103607
87.600000 -2.103607 -2.103607
87.650000 -2.103607 -2.103607
87.700000 -2.103607 -2.103607
87.750000 -2.103607 -2.103607
87.800000 -2.103607 -2.103607
87.850000 -2.103607 -2.103607
87.900000 -2.103607 -2.103607
87.950000 -2.103607 -2.103607
88.000000 -2.103607 -2.103607
88.050000 -2.103607 -2.103607
88.100000 -2.103607 -2.103607
88.150000 -2.103607 -2.103607
88.200000 -2.103607 -2.103607
88.250000 -2.103607 -2.103607
88.300000 -2.103607 -2.103607
88.350000 -2.103607 -2.103607
88.400000 -2.103607 -2.103607
88.450000 -2.103607 -2.103607
88.500000 -2.103607 -2.103607
88.550000 -2.103607 -2.103607
88.600000 -2.103607 -2.103607
88.650000 -2.103607 -2.103607
88.700000 -2.103607 -2.103607
88.750000 -2.103607 -2.103607
88.800000 -2.103607 -2.103607
88.850000 -2.103607 -2.103607
88.900000 -2.103607 -2.103607
88.950000 -2.103607 -2.103607
89.000000 -2.103607 -2.103607
89.050000 -2.103607 -2.103607
89.100000 -2.103607 -2.103607
89.150000 -2.103607 -2.103607
89.200000 -2.103607 -2.103607
89.250000 -2.103607 -2.103607
89.300000 -2.103607 -2.103607
89.350000 -2.103607 -2.103607
89.400000 -2.103607 -2.103607
89.450000 -2.103607 -2.103607
89.500000 -2.103607 -2.103607
89.550000 -2.103607 -2.103607
89.600000 -2.103607 -2.103607
89.650000 -2.103607 -2.103607
89.700000 -2.103607 -2.103607
89.750000 -2.103607 -2.103607
89.800000 -2.103607 -2.103607
89.850000 -2.103607 -2.103607
89.900000 -2.103607 -2.103607
89.950000 -2.103607 -2.103607
90.000000 -2.103607 -2.103607
90.050000 -2.103607 -2.103607
90.100000 -2.103607 -2.103607
90.150000 -2.103607 -2.103607
90.200000 -2.103607 -2.103607
90.250000 -2.103607 -2.103607
90.300000 -2.103607 -2.103607
90.350000 -2.103607 -2.103607
90.400000 -2.103607 -2.103607
90.450000 -2.103607 -2.103607
90.500000 -2.103607 -2.103607
90.550000 -2.103607 -2.103607
90.600000 -2.103607 -2.103607
90.650000 -2.103607 -2.103607
90.700000 -2.103607 -2.103607
90.750000 -2.103607 -2.103607
90.800000 -2.103607 -2.103607
90.850000 -2.103607 -2.103607
90.900000 -2.103607 -2.103607
90.950000 -2.103607 -2.103607
91.000000 -2.103607 -2.103607
91.050000 -2.103607 -2.103607
91.100000 -2.103607 -2.103607
91.150000 -2.103607 -2.103607
91.200000 -2.103607 -2.103607
91.250000 -2.103607 -2.103607
91.300000 -2.103607 -2.103607
91.350000 -2.103607 -2.103607
91.400000 -2.103607 -2.103607
91.450000 -2.103607 -2.103607
91.500000 -2.103607 -2.103607
91.550000 -2.103607 -2.103607
91.600000 -2.103607 -2.103607
91.650000 -2.103607 -2.103607
91.700000 -2.103607 -2.103607
91.750000 -2.103607 -2.103607
91.800000 -2.103607 -2.103607
91.850000 -2.103607 -2.103607
91.900000 -2.103607 -2.103607
91.950000 -2.103607 -2.103607
92.000000 -2.103607 -2.103607
92.050000 -2.103607 -2.103607
92.100000 -2.103607 -2.103607
92.150000 -2.103607 -2.103607
92.200000 -2.103607 -2.103607
92.250000 -2.103607 -2.103607
92.300000 -2.103607 -2.103607
92.350000 -2.103607 -2.103607
92.400000 -2.103607 -2.103607
92.450000 -2.103607 -2.103607
92.500000 -2.103607 -2.103607
92.550000 -2.103607 -2.103607
92.600000 -2.103607 -2.103607
92.650000 -2.103607 -2.103607
92.700000 -2.103607 -2.103607
92.750000 -2.103607 -2.103607
92.800000 -2.103607 -2.103607
92.850000 -2.103607 -2.103607
92.900000 -2.103607 -2.103607
92.950000 -2.103607 -2.103607
93.000000 -2.103607 -2.103607
93.050000 -2.103607 -2.103607
93.100000 -2.103607 -2.103607
93.150000 -2.103607 -2.103607
93.200000 -2.103607 -2.103607
93.250000 -2.103607 -2.103607
93.300000 -2.103607 -2.103607
93.350000 -2.103607 -2.103607
93.400000 -2.103607 -2.103607
93.450000 -2.103607 -2.103607
93.500000 -2.103607 -2.103607
93.550000 -2.103607 -2.103607
93.600000 -2.103607 -2.103607
93.650000 -2.103607 -2.103607
93.700000 -2.103607 -2.103607
93.750000 -2.103607 -2.103607
93.800000 -2.103607 -2.103607
93.850000 -2.103607 -2.103607
93.900000 -2.103607 -2.103607
93.950000 -2.103607 -2.103607
94.000000 -2.103607 -2.103607
94.050000 -2.103607 -2.103607
94.100000 -2.103607 -2.103607
94.150000 -2.103607 -2.103607
94.200000 -2.103607 -2.103607
94.250000 -2.103607 -2.103607
94.300000 -2.103607 -2.103607
94.350000 -2.103607 -2.103607
94.400000 -2.103607 -2.103607
94.450000 -2.103607 -2.103607
94.500000 -2.103607 -2.103607
94.550000 -2.103607 -2.103607
94.600000 -2.103607 -2.103607
94.650000 -2.103607 -2.103607
94.700000 -2.103607 -2.103607
94.750000 -2.103607 -2.103607
94.800000 -2.103607 -2.103607
94.850000 -2.103607 -2.103607
94.900000 -2.103607 -2.103607
94.950000 -2.103607 -2.103607
95.000000 -2.103607 -2.103607
95.050000 -2.103607 -2.103607
95.100000 -2.103607 -2.103607
95.150000 -2.103607 -2.103607
95.200000 -2.103607 -2.103607
95.250000 -2.103607 -2.103607
95.300000 -2.103607 -2.103607
95.350000 -2.103607 -2.103607
95.400000 -2.103607 -2.103607
95.450000 -2.103607 -2.103607
95.500000 -2.103607 -2.103607
95.550000 -2.103607 -2.103607
95.600000 -2.103607 -2.103607
95.650000 -2.103607 -2.103607
95.700000 -2.103607 -2.103607
95.750000 -2.103607 -2.103607
95.800000 -2.103607 -2.103607
95.850000 -2.103607 -2.103607
95.900000 -2.103607 -2.103607
95.950000 -2.103607 -2.103607
96.000000 -2.103607 -2.103607
96.050000 -2.103607 -2.103607
96.100000 -2.103607 -2.103607
96.150000 -2.103607 -2.103607
96.200000 -2.103607 -2.103607
96.250000 -2.103607 -2.103607
96.300000 -2.103607 -2.103607
96.350000 -2.103607 -2.103607
96.400000 -2.103607 -2.103607
96.450000 -2.103607 -2.103607
96.500000 -2.103607 -2.103607
96.550000 -2.103607 -2.103607
96.600000 -2.103607 -2.103607
96.650000 -2.103607 -2.103607
96.700000 -2.103607 -2.103607
96.750000 -2.103607 -2.103607
96.800000 -2.103607 -2.103607
96.850000 -2.103607 -2.103607
96.900000 -2.103607 -2.103607
96.950000 -2.103607 -2.103607
97.000000 -2.103607 -2.103607
97.050000 -2.103607 -2.103607
97.100000 -2.103607 -2.103607
97.150000 -2.103607 -2.103607
97.200000 -2.103607 -2.103607
97.250000 -2.103607 -2.103607
97.300000 -2.103607 -2.103607
97.350000 -2.103607 -2.103607
97.400000 -2.103607 -2.103607
97.450000 -2.103607 -2.103607
97.500000 -2.103607 -2.103607
97.550000 -2.103607 -2.103607
97.600000 -2.103607 -2.103607
97.650000 -2.103607 -2.103607
97.700000 -2.103607 -2.103607
97.750000 -2.103607 -2.103607
97.800000 -2.103607 -2.103607
97.850000 -2.103607 -2.103607
97.900000 -2.103607 -2.103607
97.950000 -2.103607 -2.103607
98.000000 -2.103607 -2.103607
98.050000 -2.103607 -2.103607
98.100000 -2.103607 -2.103607
98.150000 -2.103607 -2.103607
98.200000 -2.103607 -2.103607
98.250000 -2.103607 -2.103607
98.300000 -2.103607 -2.103607
98.350000 -2.103607 -2.103607
98.400000 -2.103607 -2.103607
98.450000 -2.103607 -2.103607
98.500000 -2.103607 -2.103607
98.550000 -2.103607 -2.103607
98.600000 -2.103607 -2.103607
98.650000 -2.103607 -2.103607
98.700000 -2.103607 -2.103607
98.750000 -2.103607 -2.103607
98.800000 -2.103607 -2.103607
98.850000 -2.103607 -2.103607
98.900000 -2.103607 -2.103607
98.950000 -2.103607 -2.103607
99.000000 -2.103607 -2.103607
99.050000 -2.103607 -2.103607
99.100000 -2.103607 -2.103607
99.150000 -2.103607 -2.103607
99.200000 -2.103607 -2.103607
99.250000 -2.103607 -2.103607
99.300000 -2.103607 -2.103607
99.350000 -2.103607 -2.103607
99.400000 -2.103607 -2.103607
99.450000 -2.103607 -2.103607
99.500000 -2.103607 -2.103607
99.550000 -2.103607 -2.103607
99.600000 -2.103607 -2.103607
99.650000 -2.103607 -2.103607
99.700000 -2.103607 -2.103607
99.750000 -2.103607 -2.103607
99.800000 -2.103607 -2.103607
99.850000 -2.103607 -2.103607
99.900000 -2.103607 -2.103607
99.950000 -2.103607 -2.103607
100.000000 -2.103607 -2.103607
100.050000 -2.103607 -2.103607
100.100000 -2.103607 -2.103607
100.150000 -2.103607 -2.103607
100.200000 -2.103607 -2.103607
100.250000 -2.103607 -2.103607
100.300000 -2.103607 -2.103607
100.350000 -2.103607 -2.103607
100.400000 -2.103607 -2.103607
100.450000 -2.103607 -2.103607
100.500000 -2.103607 -2.103607
100.550000 -2.103607 -2.103607
100.600000 -2.103607 -2.103607
100.650000 -2.103607 -2.103607
100.700000 -2.103607 -2.103607
100.750000 -2.103607 -2.103607
100.800000 -2.103607 -2.103607
100.850000 -2.103607 -2.103607
100.900000 -2.103607 -2.103607
100.950000 -2.103607 -2.103607
101.000000 -2.103607 -2.103607
101.050000 -2.103607 -2.103607
101.100000 -2.103607 -2.103607
101.150000 -2.103607 -2.103607
101.200000 -2.103607 -2.103607
101.250000 -2.103607 -2.103607
101.300000 -2.103607 -2.103607
101.350000 -2.103607 -2.103607
101.400000 -2.103607 -2.103607
101.450000 -2.103607 -2.103607
101.500000 -2.103607 -2.103607
101.550000 -2.103607 -2.103607
101.600000 -2.103607 -2.103607
101.650000 -2.103607 -2.103607
101.700000 -2.103607 -2.103607
101.750000 -2.103607 -2.103607
101.800000 -2.103607 -2.103607
101.850000 -2.103607 -2.103607
101.900000 -2.103607 -2.103607
101.950000 -2.103607 -2.103607
102.000000 -2.103607 -2.103607
102.050000 -2.103607 -2.103607
102.100000 -2.103607 -2.103607
102.150000 -2.103607 -2.103607
102.200000 -2.103607 -2.103607
102.250000 -2.103607 -2.103607
102.300000 -2.103607 -2.103607
102.350000 -2.103607 -2.103607
102.400000 -2.103607 -2.103607
102.450000 -2.103607 -2.103607
102.500000 -2.103607 -2.103607
102.550000 -2.103607 -2.103607
102.600000 -2.103607 -2.103607
102.650000 -2.103607 -2.103607
102.700000 -2.103607 -2.103607
102.750000 -2.103607 -2.103607
102.800000 -2.103607 -2.103607
102.850000 -2.103607 -2.103607
102.900000 -2.103607 -2.103607
102.950000 -2.103607 -2.103607
103.000000 -2.103607 -2.103607
103.050000 -2.103607 -2.103607
103.100000 -2.103607 -2.103607
103.150000 -2.103607 -2.103607
103.200000 -2.103607 -2.103607
103.250000 -2.103607 -2.103607
103.300000 -2.103607 -2.103607
103.350000 -2.103607 -2.103607
103.400000 -2.103607 -2.103607
103.450000 -2.103607 -2.103607
103.500000 -2.103607 -2.103607
103.550000 -2.103607 -2.103607
103.600000 -2.103607 -2.103607
103.650000 -2.103607 -2.103607
103.700000 -2.103607 -2.103607
103.750000 -2.103607 -2.103607
103.800000 -2.103607 -2.103607
103.850000 -2.103607 -2.103607
103.900000 -2.103607 -2.103607
103.950000 -2.103607 -2.103607
104.000000 -2.103607 -2.103607
104.050000 -2.103607 -2.103607
104.100000 -2.103607 -2.103607
104.150000 -2.103607 -2.103607
104.200000 -2.103607 -2.103607
104.250000 -2.103607 -2.103607
104.300000 -2.103607 -2.103607
104.350000 -2.103607 -2.103607
104.400000 -2.103607 -2.103607
104.450000 -2.103607 -2.103607
104.500000 -2.103607 -2.103607
104.550000 -2.103607 -2.103607
104.600000 -2.103607 -2.103607
104.650000 -2.103607 -2.103607
104.700000 -2.103607 -2.103607
104.750000 -2.103607 -2.103607
104.800000 -2.103607 -2.103607
104.850000 -2.103607 -2.103607
104.900000 -2.103607 -2.103607
104.950000 -2.103607 -2.103607
105.000000 -2.103607 -2.103607
105.050000 -2.103607 -2.103607
105.100000 -2.103607 -2.103607
105.150000 -2.103607 -2.103607
105.200000 -2.103607 -2.103607
105.250000 -2.103607 -2.103607
105.300000 -2.103607 -2.103607
105.350000 -2.103607 -2.103607
105.400000 -2.103607 -2.103607
105.450000 -2.103607 -2.103607
105.500000 -2.103607 -2.103607
105.550000 -2.103607 -2.103607
105.600000 -2.103607 -2.103607
105.650000 -2.103607 -2.103607
105.700000 -2.103607 -2.103607
105.750000 -2.103607 -2.103607
105.800000 -2.103607 -2.103607
105.850000 -2.103607 -2.103607
105.900000 -2.103607 -2.103607
105.950000 -2.103607 -2.103607
106.000000 -2.103607 -2.103607
106.050000 -2.103607 -2.103607
106.100000 -2.103607 -2.103607
106.150000 -2.103607 -2.103607
106.200000 -2.103607 -2.103607
106.250000 -2.103607 -2.103607
106.300000 -2.103607 -2.103607
106.350000 -2.103607 -2.103607
106.400000 -2.103607 -2.103607
106.450000 -2.103607 -2.103607
106.500000 -2.103607 -2.103607
106.550000 -2.103607 -2.103607
106.600000 -2.103607 -2.103607
106.650000 -2.103607 -2.103607
106.700000 -2.103607 -2.103607
106.750000 -2.103607 -2.103607
106.800000 -2.103607 -2.103607
106.850000 -2.103607 -2.103607
106.900000 -2.103607 -2.103607
106.950000 -2.103607 -2.103607
107.000000 -2.103607 -2.103607
107.050000 -2.103607 -2.103607
107.100000 -2.103607 -2.103607
107.150000 -2.103607 -2.103607
107.200000 -2.103607 -2.103607
107.250000 -2.103607 -2.103607
107.300000 -2.103607 -2.103607
107.350000 -2.103607 -2.103607
107.400000 -2.103607 -2.103607
107.450000 -2.103607 -2.103607
107.500000 -2.103607 -2.103607
107.550000 -2.103607 -2.103607
107.600000 -2.103607 -2.103607
107.650000 -2.103607 -2.103607
107.700000 -2.103607 -2.103607
107.750000 -2.103607 -2.103607
107.800000 -2.103607 -2.103607
107.850000 -2.103607 -2.103607
107.900000 -2.103607 -2.103607
107.950000 -2.103607 -2.103607
108.000000 -2.103607 -2.103607
108.050000 -2.103607 -2.103607
108.100000 -2.103607 -2.103607
108.150000 -2.103607 -2.103607
108.200000 -2.103607 -2.103607
108.250000 -2.103607 -2.103607
108.300000 -2.103607 -2.103607
108.350000 -2.103607 -2.103607
108.400000 -2.103607 -2.103607
108.450000 -2.103607 -2.103607
108.500000 -2.103607 -2.103607
108.550000 -2.103607 -2.103607
108.600000 -2.103607 -2.103607
108.650000 -2.103607 -2.103607
108.700000 -2.103607 -2.103607
108.750000 -2.103607 -2.103607
108.800000 -2.103607 -2.103607
108.850000 -2.103607 -2.103607
108.900000 -2.103607 -2.103607
108.950000 -2.103607 -2.103607
109.000000 -2.103607 -2.103607
109.050000 -2.103607 -2.103607
109.100000 -2.103607 -2.103607
109.150000 -2.103607 -2.103607
109.200000 -2.103607 -2.103607
109.250000 -2.103607 -2.103607
109.300000 -2.103607 -2.103607
109.350000 -2.103607 -2.103607
109.400000 -2.103607 -2.103607
109.450000 -2.103607 -2.103607
109.500000 -2.103607 -2.103607
109.550000 -2.103607 -2.103607
109.600000 -2.103607 -2.103607
109.650000 -2.103607 -2.103607
109.700000 -2.103607 -2.103607
109.750000 -2.103607 -2.103607
109.800000 -2.103607 -2.103607
109.850000 -2.103607 -2.103607
109.900000 -2.103607 -2.103607
109.950000 -2.103607 -2.103607
110.000000 -2.103607 -2.103607
110.050000 -2.103607 -2.103607
110.100000 -2.103607 -2.103607
110.150000 -2.103607 -2.103607
110.200000 -2.103607 -2.103607
110.250000 -2.103607 -2.103607
110.300000 -2.103607 -2.103607
110.350000 -2.103607 -2.103607
110.400000 -2.103607 -2.103607
110.450000 -2.103607 -2.103607
110.500000 -2.103607 -2.103607
110.550000 -2.103607 -2.103607
110.600000 -2.103607 -2.103607
110.650000 -2.103607 -2.103607
110.700000 -2.103607 -2.103607
110.750000 -2.103607 -2.103607
110.800000 -2.103607 -2.103607
110.850000 -2.103607 -2.103607
110.900000 -2.103607 -2.103607
110.950000 -2.103607 -2.103607
111.000000 -2.103607 -2.103607
111.050000 -2.103607 -2.103607
111.100000 -2.103607 -2.103607
111.150000 -2.103607 -2.103607
111.200000 -2.103607 -2.103607
111.250000 -2.103607 -2.103607
111.300000 -2.103607 -2.103607
111.350000 -2.103607 -2.103607
111.400000 -2.103607 -2.103607
111.450000 -2.103607 -2.103607
111.500000 -2.103607 -2.103607
111.550000 -2.103607 -2.103607
111.600000 -2.103607 -2.103607
111.650000 -2.103607 -2.103607
111.700000 -2.103607 -2.103607
111.750000 -2.103607 -2.103607
111.800000 -2.103607 -2.103607
111.850000 -2.103607 -2.103607
111.900000 -2.103607 -2.103607
111.950000 -2.103607 -2.103607
112.000000 -2.103607 -2.103607
112.050000 -2.103607 -2.103607
112.100000 -2.103607 -2.103607
112.150000 -2.103607 -2.103607
112.200000 -2.103607 -2.103607
112.250000 -2.103607 -2.103607
112.300000 -2.103607 -2.103607
112.350000 -2.103607 -2.103607
112.400000 -2.103607 -2.103607
112.450000 -2.103607 -2.103607
112.500000 -2.103607 -2.103607
112.550000 -2.103607 -2.103607
112.600000 -2.103607 -2.103607
112.650000 -2.103607 -2.103607
112.700000 -2.103607 -2.103607
112.750000 -2.103607 -2.103607
112.800000 -2.103607 -2.103607
112.850000 -2.103607 -2.103607
112.900000 -2.103607 -2.103607
112.950000 -2.103607 -2.103607
113.000000 -2.103607 -2.103607
113.050000 -2.103607 -2.103607
113.100000 -2.103607 -2.103607
113.150000 -2.103607 -2.103607
113.200000 -2.103607 -2.103607
113.250000 -2.103607 -2.103607
113.300000 -2.103607 -2.103607
113.350000 -2.103607 -2.103607
113.400000 -2.103607 -2.103607
113.450000 -2.103607 -2.103607
113.500000 -2.103607 -2.103607
113.550000 -2.103607 -2.103607
113.600000 -2.103607 -2.103607
113.650000 -2.103607 -2.103607
113.700000 -2.103607 -2.103607
113.750000 -2.103607 -2.103607
113.800000 -2.103607 -2.103607
113.850000 -2.103607 -2.103607
113.900000 -2.103607 -2.103607
113.950000 -2.103607 -2.103607
114.000000 -2.103607 -2.103607
114.050000 -2.103607 -2.103607
114.100000 -2.103607 -2.103607
114.150000 -2.103607 -2.103607
114.200000 -2.103607 -2.103607
114.250000 -2.103607 -2.103607
114.300000 -2.103607 -2.103607
114.350000 -2.103607 -2.103607
114.400000 -2.103607 -2.103607
114.450000 -2.103607 -2.103607
114.500000 -2.103607 -2.103607
114.550000 -2.103607 -2.103607
114.600000 -2.103607 -2.103607
114.650000 -2.103607 -2.103607
114.700000 -2.103607 -2.103607
114.750000 -2.103607 -2.103607
114.800000 -2.103607 -2.103607
114.850000 -2.103607 -2.103607
114.900000 -2.103607 -2.103607
114.950000 -2.103607 -2.103607
115.000000 -2.103607 -2.103607
115.050000 -2.103607 -2.103607
115.100000 -2.103607 -2.103607
115.150000 -2.103607 -2.103607
115.200000 -2.103607 -2.103607
115.250000 -2.103607 -2.103607
115.300000 -2.103607 -2.103607
115.350000 -2.103607 -2.103607
115.400000 -2.103607 -2.103607
115.450000 -2.103607 -2.103607
115.500000 -2.103607 -2.103607
115.550000 -2.103607 -2.103607
115.600000 -2.103607 -2.103607
115.650000 -2.103607 -2.103607
115.700000 -2.103607 -2.103607
115.750000 -2.103607 -2.103607
115.800000 -2.103607 -2.103607
115.850000 -2.103607 -2.103607
115.900000 -2.103607 -2.103607
115.950000 -2.103607 -2.103607
116.000000 -2.103607 -2.103607
116.050000 -2.103607 -2.103607
116.100000 -2.103607 -2.103607
116.150000 -2.103607 -2.103607
116.200000 -2.103607 -2.103607
116.250000 -2.103607 -2.103607
116.300000 -2.103607 -2.103607
116.350000 -2.103607 -2.103607
116.400000 -2.103607 -2.103607
116.450000 -2.103607 -2.103607
116.500000 -2.103607 -2.103607
116.550000 -2.103607 -2.103607
116.600000 -2.103607 -2.103607
116.650000 -2.103607 -2.103607
116.700000 -2.103607 -2.103607
116.750000 -2.103607 -2.103607
116.800000 -2.103607 -2.103607
116.850000 -2.103607 -2.103607
116.900000 -2.103607 -2.103607
116.950000 -2.103607 -2.103607
117.000000 -2.103607 -2.103607
117.050000 -2.103607 -2.103607
117.100000 -2.103607 -2.103607
117.150000 -2.103607 -2.103607
117.200000 -2.103607 -2.103607
117.250000 -2.103607 -2.103607
117.300000 -2.103607 -2.103607
117.350000 -2.103607 -2.103607
117.400000 -2.103607 -2.103607
117.450000 -2.103607 -2.103607
117.500000 -2.103607 -2.103607
117.550000 -2.103607 -2.103607
117.600000 -2.103607 -2.103607
117.650000 -2.103607 -2.103607
117.700000 -2.103607 -2.103607
117.750000 -2.103607 -2.103607
117.800000 -2.103607 -2.103607
117.850000 -2.103607 -2.103607
117.900000 -2.103607 -2.103607
117.950000 -2.103607 -2.103607
118.000000 -2.103607 -2.103607
118.050000 -2.103607 -2.103607
118.100000 -2.103607 -2.103607
118.150000 -2.103607 -2.103607
118.200000 -2.103607 -2.103607
118.250000 -2.103607 -2.103607
118.300000 -2.103607 -2.103607
118.350000 -2.103607 -2.103607
118.400000 -2.103607 -2.103607
118.450000 -2.103607 -2.103607
118.500000 -2.103607 -2.103607
118.550000 -2.103607 -2.103607
118.600000 -2.103607 -2.103607
118.650000 -2.103607 -2.103607
118.700000 -2.103607 -2.103607
118.750000 -2.103607 -2.103607
118.800000 -2.103607 -2.103607
118.850000 -2.103607 -2.103607
118.900000 -2.103607 -2.103607
118.950000 -2.103607 -2.103607
119.000000 -2.103607 -2.103607
119.050000 -2.103607 -2.103607
119.100000 -2.103607 -2.103607
119.150000 -2.103607 -2.103607
119.200000 -2.103607 -2.103607
119.250000 -2.103607 -2.103607
119.300000 -2.103607 -2.103607
119.350000 -2.103607 -2.103607
119.400000 -2.103607 -2.103607
119.450000 -2.103607 -2.103607
119.500000 -2.103607 -2.103607
119.550000 -2.103607 -2.103607
119.600000 -2.103607 -2.103607
119.650000 -2.103607 -2.103607
119.700000 -2.103607 -2.103607
119.750000 -2.103607 -2.103607
119.800000 -2.103607 -2.103607
119.850000 -2.103607 -2.103607
119.900000 -2.103607 -2.103607
119.950000 -2.103607 -2.103607
120.000000 -2.103607 -2.103607
120.050000 -2.103607 -2.103607
120.100000 -2.103607 -2.103607
120.150000 -2.103607 -2.103607
120.200000 -2.103607 -2.103607
120.250000 -2.103607 -2.103607
120.300000 -2.103607 -2.103607
120.350000 -2.103607 -2.103607
120.400000 -2.103607 -2.103607
120.450000 -2.103607 -2.103607
120.500000 -2.103607 -2.103607
120.550000 -2.103607 -2.103607
120.600000 -2.103607 -2.103607
120.650000 -2.103607 -2.103607
120.700000 -2.103607 -2.103607
120.750000 -2.103607 -2.103607
120.800000 -2.103607 -2.103607
120.850000 -2.103607 -2.103607
120.900000 -2.103607 -2.103607
120.950000 -2.103607 -2.103607
121.000000 -2.103607 -2.103607
121.050000 -2.103607 -2.103607
121.100000 -2.103607 -2.103607
121.150000 -2.103607 -2.103607
121.200000 -2.103607 -2.103607
121.250000 -2.103607 -2.103607
121.300000 -2.103607 -2.103607
121.350000 -2.103607 -2.103607
121.400000 -2.103607 -2.103607
121.450000 -2.103607 -2.103607
121.500000 -2.103607 -2.103607
121.550000 -2.103607 -2.103607
121.600000 -2.103607 -2.103607
121.650000 -2.103607 -2.103607
121.700000 -2.103607 -2.103607
121.750000 -2.103607 -2.103607
121.800000 -2.103607 -2.103607
121.850000 -2.103607 -2.103607
121.900000 -2.103607 -2.103607
121.950000 -2.103607 -2.103607
122.000000 -2.103607 -2.103607
122.050000 -2.103607 -2.103607
122.100000 -2.103607 -2.103607
122.150000 -2.103607 -2.103607
122.200000 -2.103607 -2.103607
122.250000 -2.103607 -2.103607
122.300000 -2.103607 -2.103607
122.350000 -2.103607 -2.103607
122.400000 -2.103607 -2.103607
122.450000 -2.103607 -2.103607
122.500000 -2.103607 -2.103607
122.550000 -2.103607 -2.103607
122.600000 -2.103607 -2.103607
122.650000 -2.103607 -2.103607
122.700000 -2.103607 -2.103607
122.750000 -2.103607 -2.103607
122.800000 -2.103607 -2.103607
122.850000 -2.103607 -2.103607
122.900000 -2.103607 -2.103607
122.950000 -2.103607 -2.103607
123.000000 -2.103607 -2.103607
123.050000 -2.103607 -2.103607
123.100000 -2.103607 -2.103607
123.150000 -2.103607 -2.103607
123.200000 -2.103607 -2.103607
123.250000 -2.103607 -2.103607
123.300000 -2.103607 -2.103607
123.350000 -2.103607 -2.103607
123.400000 -2.103607 -2.103607
123.450000 -2.103607 -2.103607
123.500000 -2.103607 -2.103607
123.550000 -2.103607 -2.103607
123.600000 -2.103607 -2.103607
123.650000 -2.103607 -2.103607
123.700000 -2.103607 -2.103607
123.750000 -2.103607 -2.103607
123.800000 -2.103607 -2.103607
123.850000 -2.103607 -2.103607
123.900000 -2.103607 -2.103607
123.950000 -2.103607 -2.103607
124.000000 -2.103607 -2.103607
124.050000 -2.103607 -2.103607
124.100000 -2.103607 -2.103607
124.150000 -2.103607 -2.103607
124.200000 -2.103607 -2.103607
124.250000 -2.103607 -2.103607
124.300000 -2.103607 -2.103607
124.350000 -2.103607 -2.103607
124.400000 -2.103607 -2.103607
124.450000 -2.103607 -2.103607
124.500000 -2.103607 -2.103607
124.550000 -2.103607 -2.103607
124.600000 -2.103607 -2.103607
124.650000 -2.103607 -2.103607
124.700000 -2.103607 -2.103607
124.750000 -2.103607 -2.103607
124.800000 -2.103607 -2.103607
124.850000 -2.103607 -2.103607
124.900000 -2.103607 -2.103607
124.950000 -2.103607 -2.103607
125.000000 -2.103607 -2.103607
125.050000 -2.103607 -2.103607
125.100000 -2.103607 -2.103607
125.150000 -2.103607 -2.103607
125.200000 -2.103607 -2.103607
125.250000 -2.103607 -2.103607
125.300000 -2.103607 -2.103607
125.350000 -2.103607 -2.103607
125.400000 -2.103607 -2.103607
125.450000 -2.103607 -2.103607
125.500000 -2.103607 -2.103607
125.550000 -2.103607 -2.103607
125.600000 -2.103607 -2.103607
125.650000 -2.103607 -2.103607
125.700000 -2.103607 -2.103607
125.750000 -2.103607 -2.103607
125.800000 -2.103607 -2.103607
125.850000 -2.103607 -2.103607
125.900000 -2.103607 -2.103607
125.950000 -2.103607 -2.103607
126.000000 -2.103607 -2.103607
126.050000 -2.103607 -2.103607
126.100000 -2.103607 -2.103607
126.150000 -2.103607 -2.103607
126.200000 -2.103607 -2.103607
126.250000 -2.103607 -2.103607
126.300000 -2.103607 -2.103607
126.350000 -2.103607 -2.103607
126.400000 -2.103607 -2.103607
126.450000 -2.103607 -2.103607
126.500000 -2.103607 -2.103607
126.550000 -2.103607 -2.103607
126.600000 -2.103607 -2.103607
126.650000 -2.103607 -2.103607
126.700000 -2.103607 -2.103607
126.750000 -2.103607 -2.103607
126.800000 -2.103607 -2.103607
126.850000 -2.103607 -2.103607
126.900000 -2.103607 -2.103607
126.950000 -2.103607 -2.103607
127.000000 -2.103607 -2.103607
127.050000 -2.103607 -2.103607
127.100000 -2.103607 -2.103607
127.150000 -2.103607 -2.103607
127.200000 -2.103607 -2.103607
127.250000 -2.103607 -2.103607
127.300000 -2.103607 -2.103607
127.350000 -2.103607 -2.103607
127.400000 -2.103607 -2.103607
127.450000 -2.103607 -2.103607
127.500000 -2.103607 -2.103607
127.550000 -2.103607 -2.103607
127.600000 -2.103607 -2.103607
127.650000 -2.103607 -2.103607
127.700000 -2.103607 -2.103607
127.750000 -2.103607 -2.103607
127.800000 -2.103607 -2.103607
127.850000 -2.103607 -2.103607
127.900000 -2.103607 -2.103607
127.950000 -2.103607 -2.103607
128.000000 -2.103607 -2.103607
128.050000 -2.103607 -2.103607
128.100000 -2.103607 -2.103607
128.150000 -2.103607 -2.103607
128.200000 -2.103607 -2.103607
128.250000 -2.103607 -2.103607
128.300000 -2.103607 -2.103607
128.350000 -2.103607 -2.103607
128.400000 -2.103607 -2.103607
128.450000 -2.103607 -2.103607
128.500000 -2.103607 -2.103607
128.550000 -2.103607 -2.103607
128.600000 -2.103607 -2.103607
128.650000 -2.103607 -2.103607
128.700000 -2.103607 -2.103607
128.750000 -2.103607 -2.103607
128.800000 -2.103607 -2.103607
128.850000 -2.103607 -2.103607
128.900000 -2.103607 -2.103607
128.950000 -2.103607 -2.103607
129.000000 -2.103607 -2.103607
129.050000 -2.103607 -2.103607
129.100000 -2.103607 -2.103607
129.150000 -2.103607 -2.103607
129.200000 -2.103607 -2.103607
129.250000 -2.103607 -2.103607
129.300000 -2.103607 -2.103607
129.350000 -2.103607 -2.103607
129.400000 -2.103607 -2.103607
129.450000 -2.103607 -2.103607
129.500000 -2.103607 -2.103607
129.550000 -2.103607 -2.103607
129.600000 -2.103607 -2.103607
129.650000 -2.103607 -2.103607
129.700000 -2.103607 -2.103607
129.750000 -2.103607 -2.103607
129.800000 -2.103607 -2.103607
129.850000 -2.103607 -2.103607
129.900000 -2.103607 -2.103607
129.950000 -2.103607 -2.103607
130.000000 -2.103607 -2.103607
130.050000 -2.103607 -2.103607
130.100000 -2.103607 -2.103607
130.150000 -2.103607 -2.103607
130.200000 -2.103607 -2.103607
130.250000 -2.103607 -2.103607
130.300000 -2.103607 -2.103607
130.350000 -2.103607 -2.103607
130.400000 -2.103607 -2.103607
130.450000 -2.103607 -2.103607
130.500000 -2.103607 -2.103607
130.550000 -2.103607 -2.103607
130.600000 -2.103607 -2.103607
130.650000 -2.103607 -2.103607
130.700000 -2.103607 -2.103607
130.750000 -2.103607 -2.103607
130.800000 -2.103607 -2.103607
130.850000 -2.103607 -2.103607
130.900000 -2.103607 -2.103607
130.950000 -2.103607 -2.103607
131.000000 -2.103607 -2.103607
131.050000 -2.103607 -2.103607
131.100000 -2.103607 -2.103607
131.150000 -2.103607 -2.103607
131.200000 -2.103607 -2.103607
131.250000 -2.103607 -2.103607
131.300000 -2.103607 -2.103607
131.350000 -2.103607 -2.103607
131.400000 -2.103607 -2.103607
131.450000 -2.103607 -2.103607
131.500000 -2.103607 -2.103607
131.550000 -2.103607 -2.103607
131.600000 -2.103607 -2.103607
131.650000 -2.103607 -2.103607
131.700000 -2.103607 -2.103607
131.750000 -2.103607 -2.103607
131.800000 -2.103607 -2.103607
131.850000 -2.103607 -2.103607
131.900000 -2.103607 -2.103607
131.950000 -2.103607 -2.103607
132.000000 -2.103607 -2.103607
132.050000 -2.103607 -2.103607
132.100000 -2.103607 -2.103607
132.150000 -2.103607 -2.103607
132.200000 -2.103607 -2.103607
132.250000 -2.103607 -2.103607
132.300000 -2.103607 -2.103607
132.350000 -2.103607 -2.103607
132.400000 -2.103607 -2.103607
132.450000 -2.103607 -2.103607
132.500000 -2.103607 -2.103607
132.550000 -2.103607 -2.103607
132.600000 -2.103607 -2.103607
132.650000 -2.103607 -2.103607
132.700000 -2.103607 -2.103607
132.750000 -2.103607 -2.103607
132.800000 -2.103607 -2.103607
132.850000 -2.103607 -2.103607
132.900000 -2.103607 -2.103607
132.950000 -2.103607 -2.103607
133.000000 -2.103607 -2.103607
133.050000 -2.103607 -2.103607
133.100000 -2.103607 -2.103607
133.150000 -2.103607 -2.103607
133.200000 -2.103607 -2.103607
133.250000 -2.103607 -2.103607
133.300000 -2.103607 -2.103607
133.350000 -2.103607 -2.103607
133.400000 -2.103607 -2.103607
133.450000 -2.103607 -2.103607
133.500000 -2.103607 -2.103607
133.550000 -2.103607 -2.103607
133.600000 -2.103607 -2.103607
133.650000 -2.103607 -2.103607
133.700000 -2.103607 -2.103607
133.750000 -2.103607 -2.103607
133.800000 -2.103607 -2.103607
133.850000 -2.103607 -2.103607
133.900000 -2.103607 -2.103607
133.950000 -2.103607 -2.103607
134.000000 -2.103607 -2.103607
134.050000 -2.103607 -2.103607
134.100000 -2.103607 -2.103607
134.150000 -2.103607 -2.103607
134.200000 -2.103607 -2.103607
134.250000 -2.103607 -2.103607
134.300000 -2.103607 -2.103607
134.350000 -2.103607 -2.103607
134.400000 -2.103607 -2.103607
134.450000 -2.103607 -2.103607
134.500000 -2.103607 -2.103607
134.550000 -2.103607 -2.103607
134.600000 -2.103607 -2.103607
134.650000 -2.103607 -2.103607
134.700000 -2.103607 -2.103607
134.750000 -2.103607 -2.103607
134.800000 -2.103607 -2.103607
134.850000 -2.103607 -2.103607
134.900000 -2.103607 -2.103607
134.950000 -2.103607 -2.103607
135.000000 -2.103607 -2.103607
135.050000 -2.103607 -2.103607
135.100000 -2.103607 -2.103607
135.150000 -2.103607 -2.103607
135.200000 -2.103607 -2.103607
135.250000 -2.103607 -2.103607
135.300000 -2.103607 -2.103607
135.350000 -2.103607 -2.103607
135.400000 -2.103607 -2.103607
135.450000 -2.103607 -2.103607
135.500000 -2.103607 -2.103607
135.550000 -2.103607 -2.103607
135.600000 -2.103607 -2.103607
135.650000 -2.103607 -2.103607
135.700000 -2.103607 -2.103607
135.750000 -2.103607 -2.103607
135.800000 -2.103607 -2.103607
135.850000 -2.103607 -2.103607
135.900000 -2.103607 -2.103607
135.950000 -2.103607 -2.103607
136.000000 -2.103607 -2.103607
136.050000 -2.103607 -2.103607
136.100000 -2.103607 -2.103607
136.150000 -2.103607 -2.103607
136.200000 -2.103607 -2.103607
136.250000 -2.103607 -2.103607
136.300000 -2.103607 -2.103607
136.350000 -2.103607 -2.103607
136.400000 -2.103607 -2.103607
136.450000 -2.103607 -2.103607
136.500000 -2.103607 -2.103607
136.550000 -2.103607 -2.103607
136.600000 -2.103607 -2.103607
136.650000 -2.103607 -2.103607
136.700000 -2.103607 -2.103607
136.750000 -2.103607 -2.103607
136.800000 -2.103607 -2.103607
136.850000 -2.103607 -2.103607
136.900000 -2.103607 -2.103607
136.950000 -2.103607 -2.103607
137.000000 -2.103607 -2.103607
137.050000 -2.103607 -2.103607
137.100000 -2.103607 -2.103607
137.150000 -2.103607 -2.103607
137.200000 -2.103607 -2.103607
137.250000 -2.103607 -2.103607
137.300000 -2.103607 -2.103607
137.350000 -2.103607 -2.103607
137.400000 -2.103607 -2.103607
137.450000 -2.103607 -2.103607
137.500000 -2.103607 -2.103607
137.550000 -2.103607 -2.103607
137.600000 -2.103607 -2.103607
137.650000 -2.103607 -2.103607
137.700000 -2.103607 -2.103607
137.750000 -2.103607 -2.103607
137.800000 -2.103607 -2.103607
137.850000 -2.103607 -2.103607
137.900000 -2.103607 -2.103607
137.950000 -2.103607 -2.103607
138.000000 -2.103607 -2.103607
138.050000 -2.103607 -2.103607
138.100000 -2.103607 -2.103607
138.150000 -2.103607 -2.103607
138.200000 -2.103607 -2.103607
138.250000 -2.103607 -2.103607
138.300000 -2.103607 -2.103607
138.350000 -2.103607 -2.103607
138.400000 -2.103607 -2.103607
138.450000 -2.103607 -2.103607
138.500000 -2.103607 -2.103607
138.550000 -2.103607 -2.103607
138.600000 -2.103607 -2.103607
138.650000 -2.103607 -2.103607
138.700000 -2.103607 -2.103607
138.750000 -2.103607 -2.103607
138.800000 -2.103607 -2.103607
138.850000 -2.103607 -2.103607
138.900000 -2.103607 -2.103607
138.950000 -2.103607 -2.103607
139.000000 -2.103607 -2.103607
139.050000 -2.103607 -2.103607
139.100000 -2.103607 -2.103607
139.150000 -2.103607 -2.103607
139.200000 -2.103607 -2.103607
139.250000 -2.103607 -2.103607
139.300000 -2.103607 -2.103607
139.350000 -2.103607 -2.103607
139.400000 -2.103607 -2.103607
139.450000 -2.103607 -2.103607
139.500000 -2.103607 -2.103607
139.550000 -2.103607 -2.103607
139.600000 -2.103607 -2.103607
139.650000 -2.103607 -2.103607
139.700000 -2.103607 -2.103607
139.750000 -2.103607 -2.103607
139.800000 -2.103607 -2.103607
139.850000 -2.103607 -2.103607
139.900000 -2.103607 -2.103607
139.950000 -2.103607 -2.103607
140.000000 -2.103607 -2.103607
140.050000 -2.103607 -2.103607
140.100000 -2.103607 -2.103607
140.150000 -2.103607 -2.103607
140.200000 -2.103607 -2.103607
140.250000 -2.103607 -2.103607
140.300000 -2.103607 -2.103607
140.350000 -2.103607 -2.103607
140.400000 -2.103607 -2.103607
140.450000 -2.103607 -2.103607
140.500000 -2.103607 -2.103607
140.550000 -2.103607 -2.103607
140.600000 -2.103607 -2.103607
140.650000 -2.103607 -2.103607
140.700000 -2.103607 -2.103607
140.750000 -2.103607 -2.103607
140.800000 -2.103607 -2.103607
140.850000 -2.103607 -2.103607
140.900000 -2.103607 -2.103607
140.950000 -2.103607 -2.103607
141.000000 -2.103607 -2.103607
141.050000 -2.103607 -2.103607
141.100000 -2.103607 -2.103607
141.150000 -2.103607 -2.103607
141.200000 -2.103607 -2.103607
141.250000 -2.103607 -2.103607
141.300000 -2.103607 -2.103607
141.350000 -2.103607 -2.103607
141.400000 -2.103607 -2.103607
141.450000 -2.103607 -2.103607
141.500000 -2.103607 -2.103607
141.550000 -2.103607 -2.103607
141.600000 -2.103607 -2.103607
141.650000 -2.103607 -2.103607
141.700000 -2.103607 -2.103607
141.750000 -2.103607 -2.103607
141.800000 -2.103607 -2.103607
141.850000 -2.103607 -2.103607
141.900000 -2.103607 -2.103607
141.950000 -2.103607 -2.103607
142.000000 -2.103607 -2.103607
142.050000 -2.103607 -2.103607
142.100000 -2.103607 -2.103607
142.150000 -2.103607 -2.103607
142.200000 -2.103607 -2.103607
142.250000 -2.103607 -2.103607
142.300000 -2.103607 -2.103607
142.350000 -2.103607 -2.103607
142.400000 -2.103607 -2.103607
142.450000 -2.103607 -2.103607
142.500000 -2.103607 -2.103607
142.550000 -2.103607 -2.103607
142.600000 -2.103607 -2.103607
142.650000 -2.103607 -2.103607
142.700000 -2.103607 -2.103607
142.750000 -2.103607 -2.103607
142.800000 -2.103607 -2.103607
142.850000 -2.103607 -2.103607
142.900000 -2.103607 -2.103607
142.950000 -2.103607 -2.103607
143.000000 -2.103607 -2.103607
143.050000 -2.103607 -2.103607
143.100000 -2.103607 -2.103607
143.150000 -2.103607 -2.103607
143.200000 -2.103607 -2.103607
143.250000 -2.103607 -2.103607
143.300000 -2.103607 -2.103607
143.350000 -2.103607 -2.103607
143.400000 -2.103607 -2.103607
143.450000 -2.103607 -2.103607
143.500000 -2.103607 -2.103607
143.550000 -2.103607 -2.103607
143.600000 -2.103607 -2.103607
143.650000 -2.103607 -2.103607
143.700000 -2.103607 -2.103607
143.750000 -2.103607 -2.103607
143.800000 -2.103607 -2.103607
143.850000 -2.103607 -2.103607
143.900000 -2.103607 -2.103607
143.950000 -2.103607 -2.103607
144.000000 -2.103607 -2.103607
144.050000 -2.103607 -2.103607
144.100000 -2.103607 -2.103607
144.150000 -2.103607 -2.103607
144.200000 -2.103607 -2.103607
144.250000 -2.103607 -2.103607
144.300000 -2.103607 -2.103607
144.350000 -2.103607 -2.103607
144.400000 -2.103607 -2.103607
144.450000 -2.103607 -2.103607
144.500000 -2.103607 -2.103607
144.550000 -2.103607 -2.103607
144.600000 -2.103607 -2.103607
144.650000 -2.103607 -2.103607
144.700000 -2.103607 -2.103607
144.750000 -2.103607 -2.103607
144.800000 -2.103607 -2.103607
144.850000 -2.103607 -2.103607
144.900000 -2.103607 -2.103607
144.950000 -2.103607 -2.103607
145.000000 -2.103607 -2.103607
145.050000 -2.103607 -2.103607
145.100000 -2.103607 -2.103607
145.150000 -2.103607 -2.103607
145.200000 -2.103607 -2.103607
145.250000 -2.103607 -2.103607
145.300000 -2.103607 -2.103607
145.350000 -2.103607 -2.103607
145.400000 -2.103607 -2.103607
145.450000 -2.103607 -2.103607
145.500000 -2.103607 -2.103607
145.550000 -2.103607 -2.103607
145.600000 -2.103607 -2.103607
145.650000 -2.103607 -2.103607
145.700000 -2.103607 -2.103607
145.750000 -2.103607 -2.103607
145.800000 -2.103607 -2.103607
145.850000 -2.103607 -2.103607
145.900000 -2.103607 -2.103607
145.950000 -2.103607 -2.103607
146.000000 -2.103607 -2.103607
146.050000 -2.103607 -2.103607
146.100000 -2.103607 -2.103607
146.150000 -2.103607 -2.103607
146.200000 -2.103607 -2.103607
146.250000 -2.103607 -2.103607
146.300000 -2.103607 -2.103607
146.350000 -2.103607 -2.103607
146.400000 -2.103607 -2.103607
146.450000 -2.103607 -2.103607
146.500000 -2.103607 -2.103607
146.550000 -2.103607 -2.103607
146.600000 -2.103607 -2.103607
146.650000 -2.103607 -2.103607
146.700000 -2.103607 -2.103607
146.750000 -2.103607 -2.103607
146.800000 -2.103607 -2.103607
146.850000 -2.103607 -2.103607
146.900000 -2.103607 -2.103607
146.950000 -2.103607 -2.103607
147.000000 -2.103607 -2.103607
147.050000 -2.103607 -2.103607
147.100000 -2.103607 -2.103607
147.150000 -2.103607 -2.103607
147.200000 -2.103607 -2.103607
147.250000 -2.103607 -2.103607
147.300000 -2.103607 -2.103607
147.350000 -2.103607 -2.103607
147.400000 -2.103607 -2.103607
147.450000 -2.103607 -2.103607
147.500000 -2.103607 -2.103607
147.550000 -2.103607 -2.103607
147.600000 -2.103607 -2.103607
147.650000 -2.103607 -2.103607
147.700000 -2.103607 -2.103607
147.750000 -2.103607 -2.103607
147.800000 -2.103607 -2.103607
147.850000 -2.103607 -2.103607
147.900000 -2.103607 -2.103607
147.950000 -2.103607 -2.103607
148.000000 -2.103607 -2.103607
148.050000 -2.103607 -2.103607
148.100000 -2.103607 -2.103607
148.150000 -2.103607 -2.103607
148.200000 -2.103607 -2.103607
148.250000 -2.103607 -2.103607
148.300000 -2.103607 -2.103607
148.350000 -2.103607 -2.103607
148.400000 -2.103607 -2.103607
148.450000 -2.103607 -2.103607
148.500000 -2.103607 -2.103607
148.550000 -2.103607 -2.103607
148.600000 -2.103607 -2.103607
148.650000 -2.103607 -2.103607
148.700000 -2.103607 -2.103607
148.750000 -2.103607 -2.103607
148.800000 -2.103607 -2.103607
148.850000 -2.103607 -2.103607
148.900000 -2.103607 -2.103607
148.950000 -2.103607 -2.103607
149.000000 -2.103607 -2.103607
149.050000 -2.103607 -2.103607
149.100000 -2.103607 -2.103607
149.150000 -2.103607 -2.103607
149.200000 -2.103607 -2.103607
149.250000 -2.103607 -2.103607
149.300000 -2.103607 -2.103607
149.350000 -2.103607 -2.103607
149.400000 -2.103607 -2.103607
149.450000 -2.103607 -2.103607
149.500000 -2.103607 -2.103607
149.550000 -2.103607 -2.103607
149.600000 -2.103607 -2.103607
149.650000 -2.103607 -2.103607
149.700000 -2.103607 -2.103607
149.750000 -2.103607 -2.103607
149.800000 -2.103607 -2.103607
149.850000 -2.103607 -2.103607
149.900000 -2.103607 -2.103607
149.950000 -2.103607 -2.103607
150.000000 -2.103607 -2.103607
150.050000 -2.103607 -2.103607
150.100000 -2.103607 -2.103607
150.150000 -2.103607 -2.103607
150.200000 -2.103607 -2.103607
150.250000 -2.103607 -2.103607
150.300000 -2.103607 -2.103607
150.350000 -2.103607 -2.103607
150.400000 -2.103607 -2.103607
150.450000 -2.103607 -2.103607
150.500000 -2.103607 -2.103607
150.550000 -2.103607 -2.103607
150.600000 -2.103607 -2.103607
150.650000 -2.103607 -2.103607
150.700000 -2.103607 -2.103607
150.750000 -2.103607 -2.103607
150.800000 -2.103607 -2.103607
150.850000 -2.103607 -2.103607
150.900000 -2.103607 -2.103607
150.950000 -2.103607 -2.103607
151.000000 -2.103607 -2.103607
151.050000 -2.103607 -2.103607
151.100000 -2.103607 -2.103607
151.150000 -2.103607 -2.103607
151.200000 -2.103607 -2.103607
151.250000 -2.103607 -2.103607
151.300000 -2.103607 -2.103607
151.350000 -2.103607 -2.103607
151.400000 -2.103607 -2.103607
151.450000 -2.103607 -2.103607
151.500000 -2.103607 -2.103607
151.550000 -2.103607 -2.103607
151.600000 -2.103607 -2.103607
151.650000 -2.103607 -2.103607
151.700000 -2.103607 -2.103607
151.750000 -2.103607 -2.103607
151.800000 -2.103607 -2.103607
151.850000 -2.103607 -2.103607
151.900000 -2.103607 -2.103607
151.950000 -2.103607 -2.103607
152.000000 -2.103607 -2.103607
152.050000 -2.103607 -2.103607
152.100000 -2.103607 -2.103607
152.150000 -2.103607 -2.103607
152.200000 -2.103607 -2.103607
152.250000 -2.103607 -2.103607
152.300000 -2.103607 -2.103607
152.350000 -2.103607 -2.103607
152.400000 -2.103607 -2.103607
152.450000 -2.103607 -2.103607
152.500000 -2.103607 -2.103607
152.550000 -2.103607 -2.103607
152.600000 -2.103607 -2.103607
152.650000 -2.103607 -2.103607
152.700000 -2.103607 -2.103607
152.750000 -2.103607 -2.103607
152.800000 -2.103607 -2.103607
152.850000 -2.103607 -2.103607
152.900000 -2.103607 -2.103607
152.950000 -2.103607 -2.103607
153.000000 -2.103607 -2.103607
153.050000 -2.103607 -2.103607
153.100000 -2.103607 -2.103607
153.150000 -2.103607 -2.103607
153.200000 -2.103607 -2.103607
153.250000 -2.103607 -2.103607
153.300000 -2.103607 -2.103607
153.350000 -2.103607 -2.103607
153.400000 -2.103607 -2.103607
153.450000 -2.103607 -2.103607
153.500000 -2.103607 -2.103607
153.550000 -2.103607 -2.103607
153.600000 -2.103607 -2.103607
153.650000 -2.103607 -2.103607
153.700000 -2.103607 -2.103607
153.750000 -2.103607 -2.103607
153.800000 -2.103607 -2.103607
153.850000 -2.103607 -2.103607
153.900000 -2.103607 -2.103607
153.950000 -2.103607 -2.103607
154.000000 -2.103607 -2.103607
154.050000 -2.103607 -2.103607
154.100000 -2.103607 -2.103607
154.150000 -2.103607 -2.103607
154.200000 -2.103607 -2.103607
154.250000 -2.103607 -2.103607
154.300000 -2.103607 -2.103607
154.350000 -2.103607 -2.103607
154.400000 -2.103607 -2.103607
154.450000 -2.103607 -2.103607
154.500000 -2.103607 -2.103607
154.550000 -2.103607 -2.103607
154.600000 -2.103607 -2.103607
154.650000 -2.103607 -2.103607
154.700000 -2.103607 -2.103607
154.750000 -2.103607 -2.103607
154.800000 -2.103607 -2.103607
154.850000 -2.103607 -2.103607
154.900000 -2.103607 -2.103607
154.950000 -2.103607 -2.103607
155.000000 -2.103607 -2.103607
155.050000 -2.103607 -2.103607
155.100000 -2.103607 -2.103607
155.150000 -2.103607 -2.103607
155.200000 -2.103607 -2.103607
155.250000 -2.103607 -2.103607
155.300000 -2.103607 -2.103607
155.350000 -2.103607 -2.103607
155.400000 -2.103607 -2.103607
155.450000 -2.103607 -2.103607
155.500000 -2.103607 -2.103607
155.550000 -2.103607 -2.103607
155.600000 -2.103607 -2.103607
155.650000 -2.103607 -2.103607
155.700000 -2.103607 -2.103607
155.750000 -2.103607 -2.103607
155.800000 -2.103607 -2.103607
155.850000 -2.103607 -2.103607
155.900000 -2.103607 -2.103607
155.950000 -2.103607 -2.103607
156.000000 -2.103607 -2.103607
156.050000 -2.103607 -2.103607
156.100000 -2.103607 -2.103607
156.150000 -2.103607 -2.103607
156.200000 -2.103607 -2.103607
156.250000 -2.103607 -2.103607
156.300000 -2.103607 -2.103607
156.350000 -2.103607 -2.103607
156.400000 -2.103607 -2.103607
156.450000 -2.103607 -2.103607
156.500000 -2.103607 -2.103607
156.550000 -2.103607 -2.103607
156.600000 -2.103607 -2.103607
156.650000 -2.103607 -2.103607
156.700000 -2.103607 -2.103607
156.750000 -2.103607 -2.103607
156.800000 -2.103607 -2.103607
156.850000 -2.103607 -2.103607
156.900000 -2.103607 -2.103607
156.950000 -2.103607 -2.103607
157.000000 -2.103607 -2.103607
157.050000 -2.103607 -2.103607
157.100000 -2.103607 -2.103607
157.150000 -2.103607 -2.103607
157.200000 -2.103607 -2.103607
157.250000 -2.103607 -2.103607
157.300000 -2.103607 -2.103607
157.350000 -2.103607 -2.103607
157.400000 -2.103607 -2.103607
157.450000 -2.103607 -2.103607
157.500000 -2.103607 -2.103607
157.550000 -2.103607 -2.103607
157.600000 -2.103607 -2.103607
157.650000 -2.103607 -2.103607
157.700000 -2.103607 -2.103607
157.750000 -2.103607 -2.103607
157.800000 -2.103607 -2.103607
157.850000 -2.103607 -2.103607
157.900000 -2.103607 -2.103607
157.950000 -2.103607 -2.103607
158.000000 -2.103607 -2.103607
158.050000 -2.103607 -2.103607
158.100000 -2.103607 -2.103607
158.150000 -2.103607 -2.103607
158.200000 -2.103607 -2.103607
158.250000 -2.103607 -2.103607
158.300000 -2.103607 -2.103607
158.350000 -2.103607 -2.103607
158.400000 -2.103607 -2.103607
158.450000 -2.103607 -2.103607
158.500000 -2.103607 -2.103607
158.550000 -2.103607 -2.103607
158.600000 -2.103607 -2.103607
158.650000 -2.103607 -2.103607
158.700000 -2.103607 -2.103607
158.750000 -2.103607 -2.103607
158.800000 -2.103607 -2.103607
158.850000 -2.103607 -2.103607
158.900000 -2.103607 -2.103607
158.950000 -2.103607 -2.103607
159.000000 -2.103607 -2.103607
159.050000 -2.103607 -2.103607
159.100000 -2.103607 -2.103607
159.150000 -2.103607 -2.103607
159.200000 -2.103607 -2.103607
159.250000 -2.103607 -2.103607
159.300000 -2.103607 -2.103607
159.350000 -2.103607 -2.103607
159.400000 -2.103607 -2.103607
159.450000 -2.103607 -2.103607
159.500000 -2.103607 -2.103607
159.550000 -2.103607 -2.103607
159.600000 -2.103607 -2.103607
159.650000 -2.103607 -2.103607
159.700000 -2.103607 -2.103607
159.750000 -2.103607 -2.103607
159.800000 -2.103607 -2.103607
159.850000 -2.103607 -2.103607
159.900000 -2.103607 -2.103607
159.950000 -2.103607 -2.103607
160.000000 -2.103607 -2.103607
160.050000 -2.103607 -2.103607
160.100000 -2.103607 -2.103607
160.150000 -2.103607 -2.103607
160.200000 -2.103607 -2.103607
160.250000 -2.103607 -2.103607
160.300000 -2.103607 -2.103607
160.350000 -2.103607 -2.103607
160.400000 -2.103607 -2.103607
160.450000 -2.103607 -2.103607
160.500000 -2.103607 -2.103607
160.550000 -2.103607 -2.103607
160.600000 -2.103607 -2.103607
160.650000 -2.103607 -2.103607
160.700000 -2.103607 -2.103607
160.750000 -2.103607 -2.103607
160.800000 -2.103607 -2.103607
160.850000 -2.103607 -2.103607
160.900000 -2.103607 -2.103607
160.950000 -2.103607 -2.103607
161.000000 -2.103607 -2.103607
161.050000 -2.103607 -2.103607
161.100000 -2.103607 -2.103607
161.150000 -2.103607 -2.103607
161.200000 -2.103607 -2.103607
161.250000 -2.103607 -2.103607
161.300000 -2.103607 -2.103607
161.350000 -2.103607 -2.103607
161.400000 -2.103607 -2.103607
161.450000 -2.103607 -2.103607
161.500000 -2.103607 -2.103607
161.550000 -2.103607 -2.103607
161.600000 -2.103607 -2.103607
161.650000 -2.103607 -2.103607
161.700000 -2.103607 -2.103607
161.750000 -2.103607 -2.103607
161.800000 -2.103607 -2.103607
161.850000 -2.103607 -2.103607
161.900000 -2.103607 -2.103607
161.950000 -2.103607 -2.103607
162.000000 -2.103607 -2.103607
162.050000 -2.103607 -2.103607
162.100000 -2.103607 -2.103607
162.150000 -2.103607 -2.103607
162.200000 -2.103607 -2.103607
162.250000 -2.103607 -2.103607
162.300000 -2.103607 -2.103607
162.350000 -2.103607 -2.103607
162.400000 -2.103607 -2.103607
162.450000 -2.103607 -2.103607
162.500000 -2.103607 -2.103607
162.550000 -2.103607 -2.103607
162.600000 -2.103607 -2.103607
162.650000 -2.103607 -2.103607
162.700000 -2.103607 -2.103607
162.750000 -2.103607 -2.103607
162.800000 -2.103607 -2.103607
162.850000 -2.103607 -2.103607
162.900000 -2.103607 -2.103607
162.950000 -2.103607 -2.103607
163.000000 -2.103607 -2.103607
163.050000 -2.103607 -2.103607
163.100000 -2.103607 -2.103607
163.150000 -2.103607 -2.103607
163.200000 -2.103607 -2.103607
163.250000 -2.103607 -2.103607
163.300000 -2.103607 -2.103607
163.350000 -2.103607 -2.103607
163.400000 -2.103607 -2.103607
163.450000 -2.103607 -2.103607
163.500000 -2.103607 -2.103607
163.550000 -2.103607 -2.103607
163.600000 -2.103607 -2.103607
163.650000 -2.103607 -2.103607
163.700000 -2.103607 -2.103607
163.750000 -2.103607 -2.103607
163.800000 -2.103607 -2.103607
163.850000 -2.103607 -2.103607
163.900000 -2.103607 -2.103607
163.950000 -2.103607 -2.103607
164.000000 -2.103607 -2.103607
164.050000 -2.103607 -2.103607
164.100000 -2.103607 -2.103607
164.150000 -2.103607 -2.103607
164.200000 -2.103607 -2.103607
164.250000 -2.103607 -2.103607
164.300000 -2.103607 -2.103607
164.350000 -2.103607 -2.103607
164.400000 -2.103607 -2.103607
164.450000 -2.103607 -2.103607
164.500000 -2.103607 -2.103607
164.550000 -2.103607 -2.103607
164.600000 -2.103607 -2.103607
164.650000 -2.103607 -2.103607
164.700000 -2.103607 -2.103607
164.750000 -2.103607 -2.103607
164.800000 -2.103607 -2.103607
164.850000 -2.103607 -2.103607
164.900000 -2.103607 -2.103607
164.950000 -2.103607 -2.103607
165.000000 -2.103607 -2.103607
165.050000 -2.103607 -2.103607
165.100000 -2.103607 -2.103607
165.150000 -2.103607 -2.103607
165.200000 -2.103607 -2.103607
165.250000 -2.103607 -2.103607
165.300000 -2.103607 -2.103607
165.350000 -2.103607 -2.103607
165.400000 -2.103607 -2.103607
165.450000 -2.103607 -2.103607
165.500000 -2.103607 -2.103607
165.550000 -2.103607 -2.103607
165.600000 -2.103607 -2.103607
165.650000 -2.103607 -2.103607
165.700000 -2.103607 -2.103607
165.750000 -2.103607 -2.103607
165.800000 -2.103607 -2.103607
165.850000 -2.103607 -2.103607
165.900000 -2.103607 -2.103607
165.950000 -2.103607 -2.103607
166.000000 -2.103607 -2.103607
166.050000 -2.103607 -2.103607
166.100000 -2.103607 -2.103607
166.150000 -2.103607 -2.103607
166.200000 -2.103607 -2.103607
166.250000 -2.103607 -2.103607
166.300000 -2.103607 -2.103607
166.350000 -2.103607 -2.103607
166.400000 -2.103607 -2.103607
166.450000 -2.103607 -2.103607
166.500000 -2.103607 -2.103607
166.550000 -2.103607 -2.103607
166.600000 -2.103607 -2.103607
166.650000 -2.103607 -2.103607
166.700000 -2.103607 -2.103607
166.750000 -2.103607 -2.103607
166.800000 -2.103607 -2.103607
166.850000 -2.103607 -2.103607
166.900000 -2.103607 -2.103607
166.950000 -2.103607 -2.103607
167.000000 -2.103607 -2.103607
167.050000 -2.103607 -2.103607
167.100000 -2.103607 -2.103607
167.150000 -2.103607 -2.103607
167.200000 -2.103607 -2.103607
167.250000 -2.103607 -2.103607
167.300000 -2.103607 -2.103607
167.350000 -2.103607 -2.103607
167.400000 -2.103607 -2.103607
167.450000 -2.103607 -2.103607
167.500000 -2.103607 -2.103607
167.550000 -2.103607 -2.103607
167.600000 -2.103607 -2.103607
167.650000 -2.103607 -2.103607
167.700000 -2.103607 -2.103607
167.750000 -2.103607 -2.103607
167.800000 -2.103607 -2.103607
167.850000 -2.103607 -2.103607
167.900000 -2.103607 -2.103607
167.950000 -2.103607 -2.103607
168.000000 -2.103607 -2.103607
168.050000 -2.103607 -2.103607
168.100000 -2.103607 -2.103607
168.150000 -2.103607 -2.103607
168.200000 -2.103607 -2.103607
168.250000 -2.103607 -2.103607
168.300000 -2.103607 -2.103607
168.350000 -2.103607 -2.103607
168.400000 -2.103607 -2.103607
168.450000 -2.103607 -2.103607
168.500000 -2.103607 -2.103607
168.550000 -2.103607 -2.103607
168.600000 -2.103607 -2.103607
168.650000 -2.103607 -2.103607
168.700000 -2.103607 -2.103607
168.750000 -2.103607 -2.103607
168.800000 -2.103607 -2.103607
168.850000 -2.103607 -2.103607
168.900000 -2.103607 -2.103607
168.950000 -2.103607 -2.103607
169.000000 -2.103607 -2.103607
169.050000 -2.103607 -2.103607
169.100000 -2.103607 -2.103607
169.150000 -2.103607 -2.103607
169.200000 -2.103607 -2.103607
169.250000 -2.103607 -2.103607
169.300000 -2.103607 -2.103607
169.350000 -2.103607 -2.103607
169.400000 -2.103607 -2.103607
169.450000 -2.103607 -2.103607
169.500000 -2.103607 -2.103607
169.550000 -2.103607 -2.103607
169.600000 -2.103607 -2.103607
169.650000 -2.103607 -2.103607
169.700000 -2.103607 -2.103607
169.750000 -2.103607 -2.103607
169.800000 -2.103607 -2.103607
169.850000 -2.103607 -2.103607
169.900000 -2.103607 -2.103607
169.950000 -2.103607 -2.103607
170.000000 -2.103607 -2.103607
170.050000 -2.103607 -2.103607
170.100000 -2.103607 -2.103607
170.150000 -2.103607 -2.103607
170.200000 -2.103607 -2.103607
170.250000 -2.103607 -2.103607
170.300000 -2.103607 -2.103607
170.350000 -2.103607 -2.103607
170.400000 -2.103607 -2.103607
170.450000 -2.103607 -2.103607
170.500000 -2.103607 -2.103607
170.550000 -2.103607 -2.103607
170.600000 -2.103607 -2.103607
170.650000 -2.103607 -2.103607
170.700000 -2.103607 -2.103607
170.750000 -2.103607 -2.103607
170.800000 -2.103607 -2.103607
170.850000 -2.103607 -2.103607
170.900000 -2.103607 -2.103607
170.950000 -2.103607 -2.103607
171.000000 -2.103607 -2.103607
171.050000 -2.103607 -2.103607
171.100000 -2.103607 -2.103607
171.150000 -2.103607 -2.103607
171.200000 -2.103607 -2.103607
171.250000 -2.103607 -2.103607
171.300000 -2.103607 -2.103607
171.350000 -2.103607 -2.103607
171.400000 -2.103607 -2.103607
171.450000 -2.103607 -2.103607
171.500000 -2.103607 -2.103607
171.550000 -2.103607 -2.103607
171.600000 -2.103607 -2.103607
171.650000 -2.103607 -2.103607
171.700000 -2.103607 -2.103607
171.750000 -2.103607 -2.103607
171.800000 -2.103607 -2.103607
171.850000 -2.103607 -2.103607
171.900000 -2.103607 -2.103607
171.950000 -2.103607 -2.103607
172.000000 -2.103607 -2.103607
172.050000 -2.103607 -2.103607
172.100000 -2.103607 -2.103607
172.150000 -2.103607 -2.103607
172.200000 -2.103607 -2.103607
172.250000 -2.103607 -2.103607
172.300000 -2.103607 -2.103607
172.350000 -2.103607 -2.103607
172.400000 -2.103607 -2.103607
172.450000 -2.103607 -2.103607
172.500000 -2.103607 -2.103607
172.550000 -2.103607 -2.103607
172.600000 -2.103607 -2.103607
172.650000 -2.103607 -2.103607
172.700000 -2.103607 -2.103607
172.750000 -2.103607 -2.103607
172.800000 -2.103607 -2.103607
172.850000 -2.103607 -2.103607
172.900000 -2.103607 -2.103607
172.950000 -2.103607 -2.103607
173.000000 -2.103607 -2.103607
173.050000 -2.103607 -2.103607
173.100000 -2.103607 -2.103607
173.150000 -2.103607 -2.103607
173.200000 -2.103607 -2.103607
173.250000 -2.103607 -2.103607
173.300000 -2.103607 -2.103607
173.350000 -2.103607 -2.103607
173.400000 -2.103607 -2.103607
173.450000 -2.103607 -2.103607
173.500000 -2.103607 -2.103607
173.550000 -2.103607 -2.103607
173.600000 -2.103607 -2.103607
173.650000 -2.103607 -2.103607
173.700000 -2.103607 -2.103607
173.750000 -2.103607 -2.103607
173.800000 -2.103607 -2.103607
173.850000 -2.103607 -2.103607
173.900000 -2.103607 -2.103607
173.950000 -2.103607 -2.103607
174.000000 -2.103607 -2.103607
174.050000 -2.103607 -2.103607
174.100000 -2.103607 -2.103607
174.150000 -2.103607 -2.103607
174.200000 -2.103607 -2.103607
174.250000 -2.103607 -2.103607
174.300000 -2.103607 -2.103607
174.350000 -2.103607 -2.103607
174.400000 -2.103607 -2.103607
174.450000 -2.103607 -2.103607
174.500000 -2.103607 -2.103607
174.550000 -2.103607 -2.103607
174.600000 -2.103607 -2.103607
174.650000 -2.103607 -2.103607
174.700000 -2.103607 -2.103607
174.750000 -2.103607 -2.103607
174.800000 -2.103607 -2.103607
174.850000 -2.103607 -2.103607
174.900000 -2.103607 -2.103607
174.950000 -2.103607 -2.103607
175.000000 -2.103607 -2.103607
175.050000 -2.103607 -2.103607
175.100000 -2.103607 -2.103607
175.150000 -2.103607 -2.103607
175.200000 -2.103607 -2.103607
175.250000 -2.103607 -2.103607
175.300000 -2.103607 -2.103607
175.350000 -2.103607 -2.103607
175.400000 -2.103607 -2.103607
175.450000 -2.103607 -2.103607
175.500000 -2.103607 -2.103607
175.550000 -2.103607 -2.103607
175.600000 -2.103607 -2.103607
175.650000 -2.103607 -2.103607
175.700000 -2.103607 -2.103607
175.750000 -2.103607 -2.103607
175.800000 -2.103607 -2.103607
175.850000 -2.103607 -2.103607
175.900000 -2.103607 -2.103607
175.950000 -2.103607 -2.103607
176.000000 -2.103607 -2.103607
176.050000 -2.103607 -2.103607
176.100000 -2.103607 -2.103607
176.150000 -2.103607 -2.103607
176.200000 -2.103607 -2.103607
176.250000 -2.103607 -2.103607
176.300000 -2.103607 -2.103607
176.350000 -2.103607 -2.103607
176.400000 -2.103607 -2.103607
176.450000 -2.103607 -2.103607
176.500000 -2.103607 -2.103607
176.550000 -2.103607 -2.103607
176.600000 -2.103607 -2.103607
176.650000 -2.103607 -2.103607
176.700000 -2.103607 -2.103607
176.750000 -2.103607 -2.103607
176.800000 -2.103607 -2.103607
176.850000 -2.103607 -2.103607
176.900000 -2.103607 -2.103607
176.950000 -2.103607 -2.103607
177.000000 -2.103607 -2.103607
177.050000 -2.103607 -2.103607
177.100000 -2.103607 -2.103607
177.150000 -2.103607 -2.103607
177.200000 -2.103607 -2.103607
177.250000 -2.103607 -2.103607
177.300000 -2.103607 -2.103607
177.350000 -2.103607 -2.103607
177.400000 -2.103607 -2.103607
177.450000 -2.103607 -2.103607
177.500000 -2.103607 -2.103607
177.550000 -2.103607 -2.103607
177.600000 -2.103607 -2.103607
177.650000 -2.103607 -2.103607
177.700000 -2.103607 -2.103607
177.750000 -2.103607 -2.103607
177.800000 -2.103607 -2.103607
177.850000 -2.103607 -2.103607
177.900000 -2.103607 -2.103607
177.950000 -2.103607 -2.103607
178.000000 -2.103607 -2.103607
178.050000 -2.103607 -2.103607
178.100000 -2.103607 -2.103607
178.150000 -2.103607 -2.103607
178.200000 -2.103607 -2.103607
178.250000 -2.103607 -2.103607
178.300000 -2.103607 -2.103607
178.350000 -2.103607 -2.103607
178.400000 -2.103607 -2.103607
178.450000 -2.103607 -2.103607
178.500000 -2.103607 -2.103607
178.550000 -2.103607 -2.103607
178.600000 -2.103607 -2.103607
178.650000 -2.103607 -2.103607
178.700000 -2.103607 -2.103607
178.750000 -2.103607 -2.103607
178.800000 -2.103607 -2.103607
178.850000 -2.103607 -2.103607
178.900000 -2.103607 -2.103607
178.950000 -2.103607 -2.103607
179.000000 -2.103607 -2.103607
179.050000 -2.103607 -2.103607
179.100000 -2.103607 -2.103607
179.150000 -2.103607 -2.103607
179.200000 -2.103607 -2.103607
179.250000 -2.103607 -2.103607
179.300000 -2.103607 -2.103607
179.350000 -2.103607 -2.103607
179.400000 -2.103607 -2.103607
179.450000 -2.103607 -2.103607
179.500000 -2.103607 -2.103607
179.550000 -2.103607 -2.103607
179.600000 -2.103607 -2.103607
179.650000 -2.103607 -2.103607
179.700000 -2.103607 -2.103607
179.750000 -2.103607 -2.103607
179.800000 -2.103607 -2.103607
179.850000 -2.103607 -2.103607
179.900000 -2.103607 -2.103607
179.950000 -2.103607 -2.103607
180.000000 -2.103607 -2.103607
180.050000 -2.103607 -2.103607
180.100000 -2.103607 -2.103607
180.150000 -2.103607 -2.103607
180.200000 -2.103607 -2.103607
180.250000 -2.103607 -2.103607
180.300000 -2.103607 -2.103607
180.350000 -2.103607 -2.103607
180.400000 -2.103607 -2.103607
180.450000 -2.103607 -2.103607
180.500000 -2.103607 -2.103607
180.550000 -2.103607 -2.103607
180.600000 -2.103607 -2.103607
180.650000 -2.103607 -2.103607
180.700000 -2.103607 -2.103607
180.750000 -2.103607 -2.103607
180.800000 -2.103607 -2.103607
180.850000 -2.103607 -2.103607
180.900000 -2.103607 -2.103607
180.950000 -2.103607 -2.103607
181.000000 -2.103607 -2.103607
181.050000 -2.103607 -2.103607
181.100000 -2.103607 -2.103607
181.150000 -2.103607 -2.103607
181.200000 -2.103607 -2.103607
181.250000 -2.103607 -2.103607
181.300000 -2.103607 -2.103607
181.350000 -2.103607 -2.103607
181.400000 -2.103607 -2.103607
181.450000 -2.103607 -2.103607
181.500000 -2.103607 -2.103607
181.550000 -2.103607 -2.103607
181.600000 -2.103607 -2.103607
181.650000 -2.103607 -2.103607
181.700000 -2.103607 -2.103607
181.750000 -2.103607 -2.103607
181.800000 -2.103607 -2.103607
181.850000 -2.103607 -2.103607
181.900000 -2.103607 -2.103607
181.950000 -2.103607 -2.103607
182.000000 -2.103607 -2.103607
182.050000 -2.103607 -2.103607
182.100000 -2.103607 -2.103607
182.150000 -2.103607 -2.103607
182.200000 -2.103607 -2.103607
182.250000 -2.103607 -2.103607
182.300000 -2.103607 -2.103607
182.350000 -2.103607 -2.103607
182.400000 -2.103607 -2.103607
182.450000 -2.103607 -2.103607
182.500000 -2.103607 -2.103607
182.550000 -2.103607 -2.103607
182.600000 -2.103607 -2.103607
182.650000 -2.103607 -2.103607
182.700000 -2.103607 -2.103607
182.750000 -2.103607 -2.103607
182.800000 -2.103607 -2.103607
182.850000 -2.103607 -2.103607
182.900000 -2.103607 -2.103607
182.950000 -2.103607 -2.103607
183.000000 -2.103607 -2.103607
183.050000 -2.103607 -2.103607
183.100000 -2.103607 -2.103607
183.150000 -2.103607 -2.103607
183.200000 -2.103607 -2.103607
183.250000 -2.103607 -2.103607
183.300000 -2.103607 -2.103607
183.350000 -2.103607 -2.103607
183.400000 -2.103607 -2.103607
183.450000 -2.103607 -2.103607
183.500000 -2.103607 -2.103607
183.550000 -2.103607 -2.103607
183.600000 -2.103607 -2.103607
183.650000 -2.103607 -2.103607
183.700000 -2.103607 -2.103607
183.750000 -2.103607 -2.103607
183.800000 -2.103607 -2.103607
183.850000 -2.103607 -2.103607
183.900000 -2.103607 -2.103607
183.950000 -2.103607 -2.103607
184.000000 -2.103607 -2.103607
184.050000 -2.103607 -2.103607
184.100000 -2.103607 -2.103607
184.150000 -2.103607 -2.103607
184.200000 -2.103607 -2.103607
184.250000 -2.103607 -2.103607
184.300000 -2.103607 -2.103607
184.350000 -2.103607 -2.103607
184.400000 -2.103607 -2.103607
184.450000 -2.103607 -2.103607
184.500000 -2.103607 -2.103607
184.550000 -2.103607 -2.103607
184.600000 -2.103607 -2.103607
184.650000 -2.103607 -2.103607
184.700000 -2.103607 -2.103607
184.750000 -2.103607 -2.103607
184.800000 -2.103607 -2.103607
184.850000 -2.103607 -2.103607
184.900000 -2.103607 -2.103607
184.950000 -2.103607 -2.103607
185.000000 -2.103607 -2.103607
185.050000 -2.103607 -2.103607
185.100000 -2.103607 -2.103607
185.150000 -2.103607 -2.103607
185.200000 -2.103607 -2.103607
185.250000 -2.103607 -2.103607
185.300000 -2.103607 -2.103607
185.350000 -2.103607 -2.103607
185.400000 -2.103607 -2.103607
185.450000 -2.103607 -2.103607
185.500000 -2.103607 -2.103607
185.550000 -2.103607 -2.103607
185.600000 -2.103607 -2.103607
185.650000 -2.103607 -2.103607
185.700000 -2.103607 -2.103607
185.750000 -2.103607 -2.103607
185.800000 -2.103607 -2.103607
185.850000 -2.103607 -2.103607
185.900000 -2.103607 -2.103607
185.950000 -2.103607 -2.103607
186.000000 -2.103607 -2.103607
186.050000 -2.103607 -2.103607
186.100000 -2.103607 -2.103607
186.150000 -2.103607 -2.103607
186.200000 -2.103607 -2.103607
186.250000 -2.103607 -2.103607
186.300000 -2.103607 -2.103607
186.350000 -2.103607 -2.103607
186.400000 -2.103607 -2.103607
186.450000 -2.103607 -2.103607
186.500000 -2.103607 -2.103607
186.550000 -2.103607 -2.103607
186.600000 -2.103607 -2.103607
186.650000 -2.103607 -2.103607
186.700000 -2.103607 -2.103607
186.750000 -2.103607 -2.103607
186.800000 -2.103607 -2.103607
186.850000 -2.103607 -2.103607
186.900000 -2.103607 -2.103607
186.950000 -2.103607 -2.103607
187.000000 -2.103607 -2.103607
